File: 20191216/Matning 1 skit/CVTESTKRISTALL5BOX6_1.DTA
EXPLAIN
TAG	CV
TITLE	LABEL	CV	Test &Identifier
DATE	LABEL	12/16/2019	Date
TIME	LABEL	10:38:18	Time
NOTES	NOTES	1	&Notes...

PSTAT	PSTAT	REF600-16093	Potentiostat
VINIT	POTEN	0.00000E+000	T	Initial &E (V)
VLIMIT1	POTEN	8.00000E-001	F	Scan Limit &1 (V)
VLIMIT2	POTEN	-5.00000E-001	F	Scan Limit &2 (V)
VFINAL	POTEN	0.00000E+000	T	Final &E (V)
SCANRATE	QUANT	4.99999E+001	&Scan Rate (mV/s)
STEPSIZE	QUANT	1.00000E+000	St&ep Size (mV)
CYCLES	IQUANT	5	C&ycles (#)
IMODE	SELECTOR	1	I/E Range &Mode
IRANGE	QUANT	1.50000E+001	&Max Current (mA)
AREA	QUANT	1.00000E+000	Electrode &Area (cm^2)
ELECTRODETYPE	SELECTOR	0	Electrode Type
STRIPPING	TOGGLE	F	Used for Stripping
POLARITY	TOGGLE	F	Signal Polarity
CONDIT	TWOPARAM	F	1.50000E+001	0.00000E+000	Conditionin&g	Time(s)	E(V)
DELAY	TWOPARAM	T	5.00000E+000	0.00000E+000	Init. De&lay	Time(s)	Stab.(mV/s)
EQDELAY	QUANT	3.00000E+000	Equil. &Time (s)
IRCOMP	SELECTOR	0	IRCom&p
PFCOR	QUANT	0.00000E+000	PF Corr. (ohm)
SAMPLINGMODE	SELECTOR	2	Sampling &Mode
OCVCURVE	TABLE	20
	Pt	T	Vf	Vm	Ach	Over
	#	s	V vs. Ref.	V	V	bits
	0	0.25	8.90616E-002	8.90616E-002	7.12687E-005	...........
	1	0.5	8.93660E-002	1.04998E-001	7.34354E-005	...........
	2	0.75	9.11613E-002	1.16222E-001	6.98521E-005	...........
	3	1	9.61729E-002	1.36381E-001	7.10187E-005	...........
	4	1.25	1.04487E-001	1.05603E-001	6.24355E-005	...........
	5	1.5	1.12431E-001	9.89040E-002	7.02687E-005	...........
	6	1.75	1.15018E-001	9.80219E-002	7.29354E-005	...........
	7	2	1.12345E-001	1.43639E-001	6.36438E-005	...........
	8	2.25	1.10698E-001	1.28927E-001	7.35604E-005	...........
	9	2.5	1.14281E-001	1.08387E-001	7.16021E-005	...........
	10	2.75	1.19173E-001	1.01104E-001	7.00187E-005	...........
	11	3	1.19192E-001	9.71566E-002	7.33520E-005	...........
	12	3.25	1.13890E-001	1.07048E-001	7.08104E-005	...........
	13	3.5	1.07731E-001	1.08673E-001	7.35604E-005	...........
	14	3.75	1.04710E-001	1.16290E-001	7.29770E-005	...........
	15	4	1.05607E-001	1.14542E-001	6.98104E-005	...........
	16	4.25	1.08530E-001	1.04262E-001	7.17687E-005	...........
	17	4.5	1.10567E-001	9.95266E-002	7.24354E-005	...........
	18	4.75	1.09923E-001	1.06860E-001	6.80188E-005	...........
	19	5	1.07677E-001	1.15002E-001	7.18520E-005	...........
EOC	QUANT	0.1076768	Open Circuit (V)
PSTATMODEL	IQUANT	4	Pstat Model
PSTATSECTION	LABEL	REF600-16093	Pstat Section
PSTATSERIALNO	LABEL	16093	Pstat Serial Number
CTRLMODE	IQUANT	1	Control Mode
IESTAB	IQUANT	2	I/E Stability
CASPEED	IQUANT	2	Control Amp Speed
CONVENTION	IQUANT	1	Current Convention
ICHRANGE	IQUANT	2	Ich Range
ICHRANGEMODE	TOGGLE	F	Ich Auto Range
ICHOFFSETENABLE	TOGGLE	F	Ich Offset Enable
ICHOFFSET	QUANT	0	Ich Offset (V)
ICHFILTER	IQUANT	2	Ich Filter
VCHRANGE	IQUANT	2	Vch Range
VCHRANGEMODE	TOGGLE	F	Vch Auto Range
VCHOFFSETENABLE	TOGGLE	F	Vch Offset Enable
VCHOFFSET	QUANT	0	Vch Offset (V)
VCHFILTER	IQUANT	2	Vch Filter
ACHRANGE	IQUANT	2	Ach Range
ACHOFFSETENABLE	TOGGLE	F	Ach Offset Enable
ACHOFFSET	QUANT	0	Ach Offset (V)
ACHFILTER	IQUANT	1	Ach Filter
IERANGELOWERLIMIT	IQUANT	1	I/E Range Lower Limit
IERANGEMODE	TOGGLE	F	I/E AutoRange
IERANGE	IQUANT	10	I/E Range
POSFEEDENABLE	TOGGLE	F	Positive Feedback IR Comp
POSFEEDRESISTANCE	QUANT	0	Positive Feedback Resistance (ohm)
ACHSELECT	IQUANT	0	Ach Select
CABLEID	IQUANT	14	Cable ID
DCCALDATE	LABEL	12/10/2019	DC Calibration Date
ACCALDATE	LABEL	12/10/2019	AC Calibration Date
THERMOSELECT	IQUANT	1	Thermo Select
FRAMEWORKVERSION	QUANT	6.12	Framework Version
INSTRUMENTVERSION	LABEL	3.11	Instrument Version
CURVE1	TABLE
	Pt	T	Vf	Im	Vu	Sig	Ach	IERange	Over
	#	s	V vs. Ref.	A	V	V	V	#	bits
	0	0.02	1.07496E-001	1.94397E-006	0.00000E+000	1.07700E-001	1.00064E-004	10	...........
	19	0.4	1.26379E-001	3.23510E-006	0.00000E+000	1.26700E-001	1.01649E-004	10	...........
	38	0.78	1.45339E-001	3.53369E-006	0.00000E+000	1.45700E-001	1.05152E-004	10	...........
	57	1.16	1.64318E-001	3.70050E-006	0.00000E+000	1.64700E-001	1.01565E-004	10	...........
	76	1.54	1.83320E-001	3.31517E-006	0.00000E+000	1.83700E-001	9.57272E-005	10	...........
	95	1.92	2.02325E-001	4.75642E-006	0.00000E+000	2.02700E-001	9.91467E-005	10	...........
	114	2.3	2.21301E-001	6.32946E-006	0.00000E+000	2.21700E-001	1.08237E-004	10	...........
	133	2.68	2.40325E-001	7.02840E-006	0.00000E+000	2.40700E-001	9.99807E-005	10	...........
	152	3.06	2.59306E-001	8.56140E-006	0.00000E+000	2.59700E-001	9.98139E-005	10	...........
	171	3.44	2.78217E-001	1.11336E-005	0.00000E+000	2.78700E-001	1.03233E-004	10	...........
	190	3.82	2.97138E-001	1.51321E-005	0.00000E+000	2.97700E-001	1.01565E-004	10	...........
	209	4.2	3.16164E-001	2.24368E-005	0.00000E+000	3.16700E-001	9.97305E-005	10	...........
	228	4.58	3.35175E-001	3.17666E-005	0.00000E+000	3.35700E-001	9.55604E-005	10	...........
	247	4.96	3.54199E-001	4.32149E-005	0.00000E+000	3.54700E-001	9.58106E-005	10	...........
	266	5.34	3.73220E-001	5.38091E-005	0.00000E+000	3.73700E-001	1.03150E-004	10	...........
	285	5.72	3.92232E-001	6.46252E-005	0.00000E+000	3.92700E-001	9.01393E-005	10	...........
	304	6.1	4.11104E-001	7.68709E-005	0.00000E+000	4.11700E-001	9.77289E-005	10	...........
	323	6.48	4.30090E-001	9.30783E-005	0.00000E+000	4.30700E-001	1.07153E-004	10	...........
	342	6.86	4.48975E-001	1.15474E-004	0.00000E+000	4.49700E-001	1.01399E-004	10	...........
	361	7.24	4.68070E-001	1.41606E-004	0.00000E+000	4.68700E-001	9.18908E-005	10	...........
	380	7.62	4.87045E-001	1.69700E-004	0.00000E+000	4.87700E-001	9.42260E-005	10	...........
	399	8	5.06035E-001	1.94872E-004	0.00000E+000	5.06700E-001	9.92301E-005	10	...........
	418	8.38	5.25038E-001	2.15068E-004	0.00000E+000	5.25700E-001	9.76455E-005	10	...........
	437	8.76	5.44008E-001	2.27202E-004	0.00000E+000	5.44700E-001	1.00398E-004	10	...........
	456	9.14	5.62997E-001	2.38757E-004	0.00000E+000	5.63700E-001	9.74787E-005	10	...........
	475	9.52	5.81877E-001	2.52569E-004	0.00000E+000	5.82700E-001	1.00648E-004	10	...........
	494	9.9	6.00931E-001	2.73525E-004	0.00000E+000	6.01700E-001	9.48098E-005	10	...........
	513	10.28	6.19916E-001	2.97518E-004	0.00000E+000	6.20700E-001	8.65531E-005	10	...........
	532	10.66	6.38905E-001	3.08633E-004	0.00000E+000	6.39700E-001	9.93135E-005	10	...........
	551	11.04	6.57942E-001	2.96524E-004	0.00000E+000	6.58700E-001	9.49766E-005	10	...........
	570	11.42	6.76846E-001	2.70501E-004	0.00000E+000	6.77700E-001	9.58106E-005	10	...........
	589	11.8	6.95799E-001	2.36927E-004	0.00000E+000	6.96700E-001	9.78123E-005	10	...........
	608	12.18	7.14797E-001	2.07491E-004	0.00000E+000	7.15700E-001	9.83961E-005	10	...........
	627	12.56	7.33749E-001	1.82838E-004	0.00000E+000	7.34700E-001	9.74787E-005	10	...........
	646	12.94	7.52787E-001	1.59511E-004	0.00000E+000	7.53700E-001	9.25580E-005	10	...........
	665	13.32	7.71784E-001	1.41709E-004	0.00000E+000	7.72700E-001	1.02316E-004	10	...........
	684	13.7	7.90787E-001	1.26316E-004	0.00000E+000	7.91700E-001	1.01399E-004	10	...........
	703	14.08	7.87794E-001	9.33102E-005	0.00000E+000	7.88700E-001	9.63944E-005	10	...........
	722	14.46	7.68793E-001	6.86737E-005	0.00000E+000	7.69700E-001	9.28082E-005	10	...........
	741	14.84	7.49766E-001	5.30985E-005	0.00000E+000	7.50700E-001	9.84795E-005	10	...........
	760	15.22	7.30752E-001	4.17803E-005	0.00000E+000	7.31700E-001	9.88131E-005	10	...........
	779	15.6	7.11846E-001	3.26524E-005	0.00000E+000	7.12700E-001	1.01565E-004	10	...........
	798	15.98	6.92980E-001	2.73227E-005	0.00000E+000	6.93700E-001	9.29750E-005	10	...........
	817	16.36	6.73950E-001	2.22283E-005	0.00000E+000	6.74700E-001	9.30584E-005	10	...........
	836	16.74	6.54930E-001	1.71856E-005	0.00000E+000	6.55700E-001	1.04318E-004	10	...........
	855	17.12	6.35937E-001	1.44615E-005	0.00000E+000	6.36700E-001	8.98891E-005	10	...........
	874	17.5	6.16924E-001	1.11170E-005	0.00000E+000	6.17700E-001	1.00815E-004	10	...........
	893	17.88	5.97919E-001	8.43796E-006	0.00000E+000	5.98700E-001	9.89799E-005	10	...........
	912	18.26	5.78945E-001	7.74069E-006	0.00000E+000	5.79700E-001	1.04818E-004	10	...........
	931	18.64	5.59998E-001	5.35861E-006	0.00000E+000	5.60700E-001	9.58940E-005	10	...........
	950	19.02	5.41130E-001	3.84730E-006	0.00000E+000	5.41700E-001	9.56438E-005	10	...........
	969	19.4	5.22025E-001	2.98488E-006	0.00000E+000	5.22700E-001	9.40592E-005	10	...........
	988	19.78	5.03042E-001	1.81219E-006	0.00000E+000	5.03700E-001	9.21410E-005	10	...........
	1007	20.16	4.84080E-001	1.55197E-006	0.00000E+000	4.84700E-001	1.00898E-004	10	...........
	1026	20.54	4.65004E-001	9.90344E-008	0.00000E+000	4.65700E-001	9.91467E-005	10	...........
	1045	20.92	4.46070E-001	-1.08867E-006	0.00000E+000	4.46700E-001	1.03650E-004	10	...........
	1064	21.3	4.27091E-001	-2.31307E-006	0.00000E+000	4.27700E-001	9.68115E-005	10	...........
	1083	21.68	4.08261E-001	-2.82518E-006	0.00000E+000	4.08700E-001	1.01315E-004	10	...........
	1102	22.06	3.89175E-001	-2.47654E-006	0.00000E+000	3.89700E-001	8.90551E-005	10	...........
	1121	22.44	3.70149E-001	-3.83606E-006	0.00000E+000	3.70700E-001	1.04067E-004	10	...........
	1140	22.82	3.51184E-001	-4.72350E-006	0.00000E+000	3.51700E-001	9.50600E-005	10	...........
	1159	23.2	3.32177E-001	-6.16809E-006	0.00000E+000	3.32700E-001	9.69783E-005	10	...........
	1178	23.58	3.13162E-001	-8.17817E-006	0.00000E+000	3.13700E-001	9.53102E-005	10	...........
	1197	23.96	2.94176E-001	-9.21574E-006	0.00000E+000	2.94700E-001	9.36422E-005	10	...........
	1216	24.34	2.75379E-001	-1.14026E-005	0.00000E+000	2.75700E-001	9.01393E-005	10	...........
	1235	24.72	2.56359E-001	-1.44269E-005	0.00000E+000	2.56700E-001	8.92219E-005	10	...........
	1254	25.1	2.37304E-001	-1.62836E-005	0.00000E+000	2.37700E-001	9.43094E-005	10	...........
	1273	25.48	2.18256E-001	-1.97816E-005	0.00000E+000	2.18700E-001	9.08899E-005	10	...........
	1292	25.86	1.99335E-001	-2.36466E-005	0.00000E+000	1.99700E-001	9.10568E-005	10	...........
	1311	26.24	1.80275E-001	-2.87961E-005	0.00000E+000	1.80700E-001	9.95637E-005	10	...........
	1330	26.62	1.61354E-001	-3.65028E-005	0.00000E+000	1.61700E-001	9.72285E-005	10	...........
	1349	27	1.42482E-001	-4.76108E-005	0.00000E+000	1.42700E-001	8.70535E-005	10	...........
	1368	27.38	1.23561E-001	-5.82918E-005	0.00000E+000	1.23700E-001	8.91385E-005	10	...........
	1387	27.76	1.04424E-001	-6.96901E-005	0.00000E+000	1.04700E-001	9.02227E-005	10	...........
	1406	28.14	8.54172E-002	-7.74602E-005	0.00000E+000	8.57000E-002	9.36422E-005	10	...........
	1425	28.52	6.64759E-002	-8.42311E-005	0.00000E+000	6.67000E-002	9.21410E-005	10	...........
	1444	28.9	4.73931E-002	-8.87216E-005	0.00000E+000	4.77000E-002	9.93969E-005	10	...........
	1463	29.28	2.84492E-002	-8.99877E-005	0.00000E+000	2.87000E-002	1.04401E-004	10	...........
	1482	29.66	9.43424E-003	-8.82896E-005	0.00000E+000	9.70002E-003	9.67281E-005	10	...........
	1501	30.04	-9.32869E-003	-8.51952E-005	0.00000E+000	-9.29999E-003	1.04151E-004	10	...........
	1520	30.42	-2.83971E-002	-8.21059E-005	0.00000E+000	-2.83000E-002	1.02733E-004	10	...........
	1539	30.8	-4.74183E-002	-7.92801E-005	0.00000E+000	-4.73000E-002	9.91467E-005	10	...........
	1558	31.18	-6.64351E-002	-7.65227E-005	0.00000E+000	-6.63000E-002	9.38924E-005	10	...........
	1577	31.56	-8.54217E-002	-7.31230E-005	0.00000E+000	-8.53000E-002	9.95637E-005	10	...........
	1596	31.94	-1.04369E-001	-6.81120E-005	0.00000E+000	-1.04300E-001	9.72285E-005	10	...........
	1615	32.32	-1.23431E-001	-6.40935E-005	0.00000E+000	-1.23300E-001	9.63110E-005	10	...........
	1634	32.7	-1.42355E-001	-6.22386E-005	0.00000E+000	-1.42300E-001	9.35588E-005	10	...........
	1653	33.08	-1.61278E-001	-6.18582E-005	0.00000E+000	-1.61300E-001	9.79791E-005	10	...........
	1672	33.46	-1.80272E-001	-6.32911E-005	0.00000E+000	-1.80300E-001	9.98139E-005	10	...........
	1691	33.84	-1.99319E-001	-6.69527E-005	0.00000E+000	-1.99300E-001	9.13903E-005	10	...........
	1710	34.22	-2.18293E-001	-7.65060E-005	0.00000E+000	-2.18300E-001	9.88965E-005	10	...........
	1729	34.6	-2.37290E-001	-9.70122E-005	0.00000E+000	-2.37300E-001	1.03150E-004	10	...........
	1748	34.98	-2.56262E-001	-1.29290E-004	0.00000E+000	-2.56300E-001	1.04318E-004	10	...........
	1767	35.36	-2.75223E-001	-1.47835E-004	0.00000E+000	-2.75300E-001	9.51434E-005	10	...........
	1786	35.74	-2.94212E-001	-1.38942E-004	0.00000E+000	-2.94300E-001	1.00815E-004	10	...........
	1805	36.12	-3.13138E-001	-1.30356E-004	0.00000E+000	-3.13300E-001	9.87297E-005	10	...........
	1824	36.5	-3.32137E-001	-1.18503E-004	0.00000E+000	-3.32300E-001	9.53936E-005	10	...........
	1843	36.88	-3.51126E-001	-1.04692E-004	0.00000E+000	-3.51300E-001	9.27248E-005	10	...........
	1862	37.26	-3.70196E-001	-8.42944E-005	0.00000E+000	-3.70300E-001	9.20576E-005	10	...........
	1881	37.64	-3.89076E-001	-6.60853E-005	0.00000E+000	-3.89300E-001	9.37256E-005	10	...........
	1900	38.02	-4.08127E-001	-5.59781E-005	0.00000E+000	-4.08300E-001	8.29668E-005	10	...........
	1919	38.4	-4.27026E-001	-5.43117E-005	0.00000E+000	-4.27300E-001	9.05564E-005	10	...........
	1938	38.78	-4.46010E-001	-5.35744E-005	0.00000E+000	-4.46300E-001	9.58940E-005	10	...........
	1957	39.16	-4.65014E-001	-5.47721E-005	0.00000E+000	-4.65300E-001	1.03233E-004	10	...........
	1976	39.54	-4.84016E-001	-5.42633E-005	0.00000E+000	-4.84300E-001	9.93135E-005	10	...........
	1992	39.86	-5.00040E-001	-5.46353E-005	0.00000E+000	-5.00300E-001	9.26414E-005	10	...........
CURVE2	TABLE
	Pt	T	Vf	Im	Vu	Sig	Ach	IERange	Over
	#	s	V vs. Ref.	A	V	V	V	#	bits
	1993	39.88	-4.98723E-001	-4.96493E-005	0.00000E+000	-4.99000E-001	1.05902E-004	10	...........
	2018	40.38	-4.73791E-001	-3.81459E-005	0.00000E+000	-4.74000E-001	9.33086E-005	10	...........
	2043	40.88	-4.48772E-001	-3.29197E-005	0.00000E+000	-4.49000E-001	9.95637E-005	10	...........
	2068	41.38	-4.23781E-001	-2.86443E-005	0.00000E+000	-4.24000E-001	9.43094E-005	10	...........
	2093	41.88	-3.98859E-001	-2.59236E-005	0.00000E+000	-3.99000E-001	9.35588E-005	10	...........
	2118	42.38	-3.73856E-001	-2.25023E-005	0.00000E+000	-3.74000E-001	1.01315E-004	10	...........
	2143	42.88	-3.48874E-001	-1.99151E-005	0.00000E+000	-3.49000E-001	9.78123E-005	10	...........
	2168	43.38	-3.23894E-001	-1.56430E-005	0.00000E+000	-3.24000E-001	9.74787E-005	10	...........
	2193	43.88	-2.98860E-001	-1.23985E-005	0.00000E+000	-2.99000E-001	8.92219E-005	10	...........
	2218	44.38	-2.73942E-001	-9.50433E-006	0.00000E+000	-2.74000E-001	1.01315E-004	10	...........
	2243	44.88	-2.48960E-001	-7.45421E-006	0.00000E+000	-2.49000E-001	9.25580E-005	10	...........
	2268	45.38	-2.23957E-001	-5.35238E-006	0.00000E+000	-2.24000E-001	9.36422E-005	10	...........
	2293	45.88	-1.99046E-001	-3.71095E-006	0.00000E+000	-1.99000E-001	1.00731E-004	10	...........
	2318	46.38	-1.74018E-001	-1.78094E-006	0.00000E+000	-1.74000E-001	8.97223E-005	10	...........
	2343	46.88	-1.49053E-001	-3.27470E-008	0.00000E+000	-1.49000E-001	9.18074E-005	10	...........
	2368	47.38	-1.24058E-001	7.19575E-007	0.00000E+000	-1.24000E-001	9.23078E-005	10	...........
	2393	47.88	-9.89956E-002	1.32397E-007	0.00000E+000	-9.90000E-002	9.85629E-005	10	...........
	2418	48.38	-7.41619E-002	8.31339E-007	0.00000E+000	-7.40000E-002	9.23912E-005	10	...........
	2443	48.88	-4.90836E-002	1.22168E-006	0.00000E+000	-4.90000E-002	9.38090E-005	10	...........
	2468	49.38	-2.41743E-002	1.98901E-006	0.00000E+000	-2.40000E-002	9.68949E-005	10	...........
	2493	49.88	8.02847E-004	3.14335E-006	0.00000E+000	1.00002E-003	8.48016E-005	10	...........
	2518	50.38	2.59327E-002	3.89234E-006	0.00000E+000	2.60000E-002	9.01393E-005	10	...........
	2543	50.88	5.06840E-002	4.92490E-006	0.00000E+000	5.10000E-002	8.98057E-005	10	...........
	2568	51.38	7.57638E-002	4.96327E-006	0.00000E+000	7.60000E-002	9.44762E-005	10	...........
	2593	51.88	1.00696E-001	6.39952E-006	0.00000E+000	1.01000E-001	8.63029E-005	10	...........
	2618	52.38	1.25718E-001	9.30205E-006	0.00000E+000	1.26000E-001	8.38842E-005	10	...........
	2643	52.88	1.50753E-001	1.09518E-005	0.00000E+000	1.51000E-001	9.42260E-005	10	...........
	2668	53.38	1.75657E-001	1.41746E-005	0.00000E+000	1.76000E-001	9.38924E-005	10	...........
	2693	53.88	2.00637E-001	1.79062E-005	0.00000E+000	2.01000E-001	9.69783E-005	10	...........
	2718	54.38	2.25663E-001	2.34961E-005	0.00000E+000	2.26000E-001	8.38842E-005	10	...........
	2743	54.88	2.50550E-001	3.09826E-005	0.00000E+000	2.51000E-001	9.30584E-005	10	...........
	2768	55.38	2.75613E-001	3.81688E-005	0.00000E+000	2.76000E-001	8.18826E-005	10	...........
	2793	55.88	3.00526E-001	4.36469E-005	0.00000E+000	3.01000E-001	9.34754E-005	10	...........
	2818	56.38	3.25518E-001	4.75187E-005	0.00000E+000	3.26000E-001	8.88883E-005	10	...........
	2843	56.88	3.50564E-001	4.82643E-005	0.00000E+000	3.51000E-001	8.87215E-005	10	...........
	2868	57.38	3.75367E-001	5.40927E-005	0.00000E+000	3.76000E-001	9.25580E-005	10	...........
	2893	57.88	4.00495E-001	7.19866E-005	0.00000E+000	4.01000E-001	9.05564E-005	10	...........
	2918	58.38	4.25421E-001	1.00872E-004	0.00000E+000	4.26000E-001	8.98057E-005	10	...........
	2943	58.88	4.50407E-001	1.28564E-004	0.00000E+000	4.51000E-001	8.02145E-005	10	...........
	2968	59.38	4.75554E-001	1.39504E-004	0.00000E+000	4.76000E-001	9.18074E-005	10	...........
	2993	59.88	5.00238E-001	1.27495E-004	0.00000E+000	5.01000E-001	9.35588E-005	10	...........
	3018	60.38	5.25316E-001	1.07966E-004	0.00000E+000	5.26000E-001	8.86381E-005	10	...........
[...]
	12471	249.44	-4.20735E-001	2.90147E-006	0.00000E+000	-4.21000E-001	5.08572E-005	10	...........
	12477	249.56	-4.14732E-001	2.94151E-006	0.00000E+000	-4.15000E-001	6.37010E-005	10	...........
	12483	249.68	-4.08702E-001	3.40525E-006	0.00000E+000	-4.09000E-001	5.57779E-005	10	...........
	12489	249.8	-4.02772E-001	1.14995E-006	0.00000E+000	-4.03000E-001	5.72791E-005	10	...........
	12495	249.92	-3.96831E-001	1.94731E-006	0.00000E+000	-3.97000E-001	5.64451E-005	10	...........
	12501	250.04	-3.90750E-001	1.23169E-006	0.00000E+000	-3.91000E-001	6.43683E-005	10	...........
	12507	250.16	-3.84580E-001	2.02571E-006	0.00000E+000	-3.85000E-001	6.85383E-005	10	...........
	12513	250.28	-3.78778E-001	-7.77862E-008	0.00000E+000	-3.79000E-001	5.42767E-005	10	...........
	12519	250.4	-3.72871E-001	-6.96658E-007	0.00000E+000	-3.73000E-001	5.55277E-005	10	...........
	12525	250.52	-3.66843E-001	-1.47734E-006	0.00000E+000	-3.67000E-001	5.36928E-005	10	...........
	12531	250.64	-3.60786E-001	-2.38813E-006	0.00000E+000	-3.61000E-001	5.61115E-005	10	...........
	12537	250.76	-3.54790E-001	-1.11035E-006	0.00000E+000	-3.55000E-001	5.66953E-005	10	...........
	12543	250.88	-3.48839E-001	-2.95196E-006	0.00000E+000	-3.49000E-001	5.53609E-005	10	...........
	12549	251	-3.42879E-001	-2.52659E-006	0.00000E+000	-3.43000E-001	5.52775E-005	10	...........
	12555	251.12	-3.36646E-001	-1.42229E-006	0.00000E+000	-3.37000E-001	6.75375E-005	10	...........
	12561	251.24	-3.30803E-001	-3.78935E-006	0.00000E+000	-3.31000E-001	6.13658E-005	10	...........
	12567	251.36	-3.24880E-001	-2.73176E-006	0.00000E+000	-3.25000E-001	6.43683E-005	10	...........
	12573	251.48	-3.18921E-001	-2.70507E-006	0.00000E+000	-3.19000E-001	5.63617E-005	10	...........
	12579	251.6	-3.12869E-001	-3.36565E-006	0.00000E+000	-3.13000E-001	5.89471E-005	10	...........
	12585	251.72	-3.06851E-001	-3.09375E-006	0.00000E+000	-3.07000E-001	6.36176E-005	10	...........
	12591	251.84	-3.00892E-001	-2.97698E-006	0.00000E+000	-3.01000E-001	6.20330E-005	10	...........
	12597	251.96	-2.94744E-001	-1.18875E-006	0.00000E+000	-2.95000E-001	6.92055E-005	10	...........
	12603	252.08	-2.88861E-001	-1.39393E-006	0.00000E+000	-2.89000E-001	6.10322E-005	10	...........
	12609	252.2	-2.82832E-001	-2.06952E-006	0.00000E+000	-2.83000E-001	5.73625E-005	10	...........
	12615	252.32	-2.76904E-001	-2.18462E-006	0.00000E+000	-2.77000E-001	5.33592E-005	10	...........
	12621	252.44	-2.70932E-001	-3.07373E-006	0.00000E+000	-2.71000E-001	6.32840E-005	10	...........
	12627	252.56	-2.64899E-001	-3.50243E-006	0.00000E+000	-2.65000E-001	5.35260E-005	10	...........
	12633	252.68	-2.58857E-001	-2.59998E-006	0.00000E+000	-2.59000E-001	6.18662E-005	10	...........
	12639	252.8	-2.52684E-001	-1.79094E-006	0.00000E+000	-2.53000E-001	7.17076E-005	10	...........
	12645	252.92	-2.46958E-001	-2.61333E-006	0.00000E+000	-2.47000E-001	5.66953E-005	10	...........
	12651	253.04	-2.40978E-001	-2.18629E-006	0.00000E+000	-2.41000E-001	5.71957E-005	10	...........
	12657	253.16	-2.34821E-001	-2.39147E-006	0.00000E+000	-2.35000E-001	6.14492E-005	10	...........
	12663	253.28	-2.28852E-001	-1.89604E-006	0.00000E+000	-2.29000E-001	6.31172E-005	10	...........
	12669	253.4	-2.22980E-001	-1.62246E-006	0.00000E+000	-2.23000E-001	5.70289E-005	10	...........
	12675	253.52	-2.16990E-001	-1.80262E-006	0.00000E+000	-2.17000E-001	5.63617E-005	10	...........
	12681	253.64	-2.10780E-001	-7.60047E-007	0.00000E+000	-2.11000E-001	5.58613E-005	10	...........
	12687	253.76	-2.04966E-001	-2.26135E-006	0.00000E+000	-2.05000E-001	5.36928E-005	10	...........
	12693	253.88	-1.99026E-001	-3.15880E-006	0.00000E+000	-1.99000E-001	5.89471E-005	10	...........
	12699	254	-1.92994E-001	-2.53993E-006	0.00000E+000	-1.93000E-001	5.75293E-005	10	...........
	12705	254.12	-1.86766E-001	-2.07452E-006	0.00000E+000	-1.87000E-001	6.42848E-005	10	...........
	12711	254.24	-1.80997E-001	-3.17548E-006	0.00000E+000	-1.81000E-001	5.26086E-005	10	...........
	12717	254.36	-1.75022E-001	-2.83352E-006	0.00000E+000	-1.75000E-001	5.71957E-005	10	...........
	12723	254.48	-1.68957E-001	-2.24801E-006	0.00000E+000	-1.69000E-001	5.39431E-005	10	...........
	12729	254.6	-1.62949E-001	-2.98198E-006	0.00000E+000	-1.63000E-001	5.42767E-005	10	...........
	12735	254.72	-1.57072E-001	-1.72922E-006	0.00000E+000	-1.57000E-001	5.37762E-005	10	...........
	12741	254.84	-1.51041E-001	-2.12290E-006	0.00000E+000	-1.51000E-001	4.81049E-005	10	...........
	12747	254.96	-1.44845E-001	-7.36693E-007	0.00000E+000	-1.45000E-001	6.28670E-005	10	...........
	12753	255.08	-1.38990E-001	-2.04563E-007	0.00000E+000	-1.39000E-001	5.34426E-005	10	...........
	12759	255.2	-1.33015E-001	-1.86267E-006	0.00000E+000	-1.33000E-001	6.05318E-005	10	...........
	12765	255.32	-1.27064E-001	-1.51737E-006	0.00000E+000	-1.27000E-001	6.15326E-005	10	...........
	12771	255.44	-1.21061E-001	-2.08453E-006	0.00000E+000	-1.21000E-001	5.86135E-005	10	...........
	12777	255.56	-1.15068E-001	-1.38726E-006	0.00000E+000	-1.15000E-001	5.43601E-005	10	...........
	12783	255.68	-1.09086E-001	-1.69586E-006	0.00000E+000	-1.09000E-001	5.91140E-005	10	...........
	12789	255.8	-1.02861E-001	-5.18170E-007	0.00000E+000	-1.03000E-001	6.32840E-005	10	...........
	12795	255.92	-9.70791E-002	-1.86101E-006	0.00000E+000	-9.70000E-002	6.26168E-005	10	...........
	12801	256.04	-9.11369E-002	-1.82597E-006	0.00000E+000	-9.10000E-002	5.96144E-005	10	...........
	12807	256.16	-8.50684E-002	-7.33357E-007	0.00000E+000	-8.50000E-002	5.94476E-005	10	...........
	12813	256.28	-7.90703E-002	-1.32554E-006	0.00000E+000	-7.90000E-002	5.52775E-005	10	...........
	12819	256.4	-7.30830E-002	-7.01663E-007	0.00000E+000	-7.30000E-002	6.05318E-005	10	...........
	12825	256.52	-6.70970E-002	-7.06667E-007	0.00000E+000	-6.70000E-002	5.71957E-005	10	...........
	12831	256.64	-6.09267E-002	1.18832E-006	0.00000E+000	-6.10000E-002	5.86969E-005	10	...........
	12837	256.76	-5.51026E-002	6.51182E-007	0.00000E+000	-5.50000E-002	5.88637E-005	10	...........
	12843	256.88	-4.90967E-002	-3.41349E-007	0.00000E+000	-4.90000E-002	6.42014E-005	10	...........
	12849	257	-4.30454E-002	2.44161E-007	0.00000E+000	-4.30000E-002	5.42767E-005	10	...........
	12855	257.12	-3.71649E-002	-1.08533E-006	0.00000E+000	-3.70000E-002	5.39431E-005	10	...........
	12861	257.24	-3.11427E-002	-4.91480E-007	0.00000E+000	-3.10000E-002	5.76127E-005	10	...........
	12867	257.36	-2.50983E-002	-1.21157E-007	0.00000E+000	-2.50000E-002	7.07068E-005	10	...........
	12873	257.48	-1.89391E-002	1.35012E-006	0.00000E+000	-1.90000E-002	7.62947E-005	10	...........
	12879	257.6	-1.31812E-002	-5.04825E-007	0.00000E+000	-1.30000E-002	6.26168E-005	10	...........
	12885	257.72	-7.15008E-003	6.87880E-007	0.00000E+000	-6.99998E-003	6.09488E-005	10	...........
	12891	257.84	-1.09354E-003	4.39864E-008	0.00000E+000	-9.99987E-004	5.94476E-005	10	...........
	12897	257.96	4.76434E-003	-3.54694E-007	0.00000E+000	5.00001E-003	5.45269E-005	10	...........
	12903	258.08	1.07577E-002	4.21929E-006	0.00000E+000	1.10000E-002	5.26086E-005	10	...........
	12909	258.2	1.68293E-002	3.67602E-007	0.00000E+000	1.70000E-002	6.06986E-005	10	...........
	12915	258.32	2.30141E-002	2.15082E-006	0.00000E+000	2.30000E-002	6.83715E-005	10	...........
	12921	258.44	2.88155E-002	-1.16540E-006	0.00000E+000	2.90000E-002	5.63617E-005	10	...........
	12927	258.56	3.47384E-002	3.37575E-007	0.00000E+000	3.50000E-002	6.20330E-005	10	...........
	12933	258.68	4.08293E-002	1.39016E-006	0.00000E+000	4.10000E-002	6.16160E-005	10	...........
	12939	258.8	4.68704E-002	1.14047E-007	0.00000E+000	4.70000E-002	5.92808E-005	10	...........
	12945	258.92	5.28252E-002	4.23184E-008	0.00000E+000	5.30000E-002	5.66119E-005	10	...........
	12951	259.04	5.87025E-002	5.89461E-007	0.00000E+000	5.90000E-002	6.56193E-005	10	...........
	12957	259.16	6.48806E-002	2.57953E-006	0.00000E+000	6.50000E-002	7.05400E-005	10	...........
	12963	259.28	7.08306E-002	7.49601E-007	0.00000E+000	7.10000E-002	6.11156E-005	10	...........
	12969	259.4	7.67709E-002	3.90902E-006	0.00000E+000	7.70000E-002	5.96144E-005	10	...........
	12975	259.52	8.27496E-002	1.93730E-006	0.00000E+000	8.30000E-002	5.87803E-005	10	...........
	12981	259.64	8.87585E-002	1.29508E-006	0.00000E+000	8.90000E-002	6.06152E-005	10	...........
	12987	259.76	9.47615E-002	7.24579E-007	0.00000E+000	9.50000E-002	6.33674E-005	10	...........
	12993	259.88	1.00771E-001	8.89723E-007	0.00000E+000	1.01000E-001	5.87803E-005	10	...........
	12999	260	1.06877E-001	3.13668E-006	0.00000E+000	1.07000E-001	7.62947E-005	10	...........
	13000	260.02	1.07910E-001	3.12000E-006	0.00000E+000	1.08000E-001	6.83715E-005	10	...........