File: 20191216/Matning 1 skit/CVTESTKRISTALL5BOX6_2.DTA
EXPLAIN
TAG	CV
TITLE	LABEL	CV	Test &Identifier
DATE	LABEL	12/16/2019	Date
TIME	LABEL	10:43:08	Time
NOTES	NOTES	1	&Notes...

PSTAT	PSTAT	REF600-16093	Potentiostat
VINIT	POTEN	0.00000E+000	T	Initial &E (V)
VLIMIT1	POTEN	8.00000E-001	F	Scan Limit &1 (V)
VLIMIT2	POTEN	-5.00000E-001	F	Scan Limit &2 (V)
VFINAL	POTEN	0.00000E+000	T	Final &E (V)
SCANRATE	QUANT	4.99999E+001	&Scan Rate (mV/s)
STEPSIZE	QUANT	1.00000E+000	St&ep Size (mV)
CYCLES	IQUANT	5	C&ycles (#)
IMODE	SELECTOR	1	I/E Range &Mode
IRANGE	QUANT	1.50000E+001	&Max Current (mA)
AREA	QUANT	1.00000E+000	Electrode &Area (cm^2)
ELECTRODETYPE	SELECTOR	0	Electrode Type
STRIPPING	TOGGLE	F	Used for Stripping
POLARITY	TOGGLE	F	Signal Polarity
CONDIT	TWOPARAM	F	1.50000E+001	0.00000E+000	Conditionin&g	Time(s)	E(V)
DELAY	TWOPARAM	T	5.00000E+000	0.00000E+000	Init. De&lay	Time(s)	Stab.(mV/s)
EQDELAY	QUANT	3.00000E+000	Equil. &Time (s)
IRCOMP	SELECTOR	0	IRCom&p
PFCOR	QUANT	0.00000E+000	PF Corr. (ohm)
SAMPLINGMODE	SELECTOR	2	Sampling &Mode
OCVCURVE	TABLE	20
	Pt	T	Vf	Vm	Ach	Over
	#	s	V vs. Ref.	V	V	bits
	0	0.25	2.13197E-001	2.13197E-001	8.63935E-005	...........
	1	0.5	2.13398E-001	2.23756E-001	8.26435E-005	...........
	2	0.75	2.14165E-001	2.09042E-001	8.18519E-005	...........
	3	1	2.15271E-001	2.21499E-001	8.41019E-005	...........
	4	1.25	2.16333E-001	2.28600E-001	8.21019E-005	...........
	5	1.5	2.17732E-001	2.11657E-001	8.05186E-005	...........
	6	1.75	2.18864E-001	2.00571E-001	7.58103E-005	...........
	7	2	2.17466E-001	2.01152E-001	8.38935E-005	...........
	8	2.25	2.13475E-001	2.31346E-001	8.28102E-005	...........
	9	2.5	2.10871E-001	2.24452E-001	8.53102E-005	...........
	10	2.75	2.12736E-001	2.17540E-001	8.32685E-005	...........
	11	3	2.17011E-001	2.18929E-001	8.40185E-005	...........
	12	3.25	2.19824E-001	2.15991E-001	8.27269E-005	...........
	13	3.5	2.20336E-001	2.31165E-001	7.56437E-005	...........
	14	3.75	2.20383E-001	2.18548E-001	8.29352E-005	...........
	15	4	2.21174E-001	2.23140E-001	8.13519E-005	...........
	16	4.25	2.22135E-001	2.23737E-001	8.13102E-005	...........
	17	4.5	2.22363E-001	2.08253E-001	8.08102E-005	...........
	18	4.75	2.21257E-001	2.14344E-001	7.47270E-005	...........
	19	5	2.18783E-001	2.15220E-001	7.96436E-005	...........
EOC	QUANT	0.218783	Open Circuit (V)
PSTATMODEL	IQUANT	4	Pstat Model
PSTATSECTION	LABEL	REF600-16093	Pstat Section
PSTATSERIALNO	LABEL	16093	Pstat Serial Number
CTRLMODE	IQUANT	1	Control Mode
IESTAB	IQUANT	2	I/E Stability
CASPEED	IQUANT	2	Control Amp Speed
CONVENTION	IQUANT	1	Current Convention
ICHRANGE	IQUANT	2	Ich Range
ICHRANGEMODE	TOGGLE	F	Ich Auto Range
ICHOFFSETENABLE	TOGGLE	F	Ich Offset Enable
ICHOFFSET	QUANT	0	Ich Offset (V)
ICHFILTER	IQUANT	2	Ich Filter
VCHRANGE	IQUANT	2	Vch Range
VCHRANGEMODE	TOGGLE	F	Vch Auto Range
VCHOFFSETENABLE	TOGGLE	F	Vch Offset Enable
VCHOFFSET	QUANT	0	Vch Offset (V)
VCHFILTER	IQUANT	2	Vch Filter
ACHRANGE	IQUANT	2	Ach Range
ACHOFFSETENABLE	TOGGLE	F	Ach Offset Enable
ACHOFFSET	QUANT	0	Ach Offset (V)
ACHFILTER	IQUANT	1	Ach Filter
IERANGELOWERLIMIT	IQUANT	1	I/E Range Lower Limit
IERANGEMODE	TOGGLE	F	I/E AutoRange
IERANGE	IQUANT	10	I/E Range
POSFEEDENABLE	TOGGLE	F	Positive Feedback IR Comp
POSFEEDRESISTANCE	QUANT	0	Positive Feedback Resistance (ohm)
ACHSELECT	IQUANT	0	Ach Select
CABLEID	IQUANT	14	Cable ID
DCCALDATE	LABEL	12/10/2019	DC Calibration Date
ACCALDATE	LABEL	12/10/2019	AC Calibration Date
THERMOSELECT	IQUANT	1	Thermo Select
FRAMEWORKVERSION	QUANT	6.12	Framework Version
INSTRUMENTVERSION	LABEL	3.11	Instrument Version
CURVE1	TABLE
	Pt	T	Vf	Im	Vu	Sig	Ach	IERange	Over
	#	s	V vs. Ref.	A	V	V	V	#	bits
	0	0.02	2.18210E-001	4.87653E-006	0.00000E+000	2.18800E-001	7.25416E-005	10	...........
	18	0.38	2.36240E-001	4.48786E-006	0.00000E+000	2.36800E-001	9.06397E-005	10	...........
	36	0.74	2.54235E-001	4.73140E-006	0.00000E+000	2.54800E-001	8.10486E-005	10	...........
	54	1.1	2.72230E-001	4.20594E-006	0.00000E+000	2.72800E-001	8.28000E-005	10	...........
	72	1.46	2.90188E-001	4.28434E-006	0.00000E+000	2.90800E-001	8.57191E-005	10	...........
	90	1.82	3.08249E-001	3.89567E-006	0.00000E+000	3.08800E-001	7.08736E-005	10	...........
	108	2.18	3.26280E-001	4.76476E-006	0.00000E+000	3.26800E-001	7.37926E-005	10	...........
	126	2.54	3.44143E-001	4.44282E-006	0.00000E+000	3.44800E-001	7.92971E-005	10	...........
	144	2.9	3.62138E-001	4.20928E-006	0.00000E+000	3.62800E-001	9.19742E-005	10	...........
	162	3.26	3.80118E-001	4.40945E-006	0.00000E+000	3.80800E-001	8.07150E-005	10	...........
	180	3.62	3.98019E-001	4.08417E-006	0.00000E+000	3.98800E-001	8.51352E-005	10	...........
	198	3.98	4.16111E-001	4.46784E-006	0.00000E+000	4.16800E-001	7.57109E-005	10	...........
	216	4.34	4.34381E-001	5.22183E-006	0.00000E+000	4.34800E-001	7.74623E-005	10	...........
	234	4.7	4.52074E-001	4.60963E-006	0.00000E+000	4.52800E-001	7.65449E-005	10	...........
	252	5.06	4.69995E-001	4.35274E-006	0.00000E+000	4.70800E-001	7.91303E-005	10	...........
	270	5.42	4.88069E-001	4.62631E-006	0.00000E+000	4.88800E-001	8.38008E-005	10	...........
	288	5.78	5.06036E-001	4.30269E-006	0.00000E+000	5.06800E-001	7.82129E-005	10	...........
	306	6.14	5.23927E-001	4.05748E-006	0.00000E+000	5.24800E-001	8.59693E-005	10	...........
	324	6.5	5.41967E-001	3.60375E-006	0.00000E+000	5.42800E-001	8.11320E-005	10	...........
	342	6.86	5.60155E-001	5.07170E-006	0.00000E+000	5.60800E-001	7.78793E-005	10	...........
	360	7.22	5.78011E-001	4.71138E-006	0.00000E+000	5.78800E-001	7.48768E-005	10	...........
	378	7.58	5.95894E-001	4.32104E-006	0.00000E+000	5.96800E-001	7.86299E-005	10	...........
	396	7.94	6.13873E-001	4.80313E-006	0.00000E+000	6.14800E-001	7.72121E-005	10	...........
	414	8.3	6.31836E-001	4.04914E-006	0.00000E+000	6.32800E-001	8.31336E-005	10	...........
	432	8.66	6.49959E-001	4.46117E-006	0.00000E+000	6.50800E-001	8.28834E-005	10	...........
	450	9.02	6.68027E-001	5.29856E-006	0.00000E+000	6.68800E-001	7.35424E-005	10	...........
	468	9.38	6.85830E-001	4.93658E-006	0.00000E+000	6.86800E-001	7.57943E-005	10	...........
	486	9.74	7.03619E-001	4.69971E-006	0.00000E+000	7.04800E-001	7.46266E-005	10	...........
	504	10.1	7.21758E-001	4.61130E-006	0.00000E+000	7.22800E-001	7.64615E-005	10	...........
	522	10.46	7.39772E-001	4.25265E-006	0.00000E+000	7.40800E-001	8.35506E-005	10	...........
	540	10.82	7.57681E-001	4.32438E-006	0.00000E+000	7.58800E-001	7.26250E-005	10	...........
	558	11.18	7.75733E-001	4.51788E-006	0.00000E+000	7.76800E-001	7.40428E-005	10	...........
	576	11.54	7.93955E-001	5.27020E-006	0.00000E+000	7.94800E-001	6.82881E-005	10	...........
	594	11.9	7.85750E-001	4.79479E-006	0.00000E+000	7.86800E-001	7.88801E-005	10	...........
	612	12.26	7.67744E-001	4.75642E-006	0.00000E+000	7.68800E-001	8.08818E-005	10	...........
	630	12.62	7.49697E-001	4.73641E-006	0.00000E+000	7.50800E-001	8.22162E-005	10	...........
	648	12.98	7.31908E-001	4.24598E-006	0.00000E+000	7.32800E-001	8.72203E-005	10	...........
	666	13.34	7.13933E-001	4.34606E-006	0.00000E+000	7.14800E-001	7.56275E-005	10	...........
	684	13.7	6.95994E-001	5.33359E-006	0.00000E+000	6.96800E-001	6.64533E-005	10	...........
	702	14.06	6.77819E-001	4.55458E-006	0.00000E+000	6.78800E-001	7.12072E-005	10	...........
	720	14.42	6.59825E-001	4.37276E-006	0.00000E+000	6.60800E-001	8.10486E-005	10	...........
	738	14.78	6.41964E-001	4.56959E-006	0.00000E+000	6.42800E-001	7.66283E-005	10	...........
	756	15.14	6.23834E-001	4.05248E-006	0.00000E+000	6.24800E-001	8.11320E-005	10	...........
	774	15.5	6.05873E-001	3.82061E-006	0.00000E+000	6.06800E-001	8.89717E-005	10	...........
	792	15.86	5.87967E-001	3.96573E-006	0.00000E+000	5.88800E-001	8.39676E-005	10	...........
	810	16.22	5.70139E-001	4.75142E-006	0.00000E+000	5.70800E-001	6.22832E-005	10	...........
	828	16.58	5.52105E-001	4.71472E-006	0.00000E+000	5.52800E-001	7.39594E-005	10	...........
	846	16.94	5.33972E-001	4.57627E-006	0.00000E+000	5.34800E-001	7.72955E-005	10	...........
	864	17.3	5.15985E-001	4.29102E-006	0.00000E+000	5.16800E-001	7.46266E-005	10	...........
	882	17.66	4.97990E-001	4.00076E-006	0.00000E+000	4.98800E-001	7.52939E-005	10	...........
	900	18.02	4.80119E-001	3.24511E-006	0.00000E+000	4.80800E-001	7.22914E-005	10	...........
	918	18.38	4.62132E-001	4.62798E-006	0.00000E+000	4.62800E-001	7.23748E-005	10	...........
	936	18.74	4.44135E-001	4.63632E-006	0.00000E+000	4.44800E-001	6.82047E-005	10	...........
	954	19.1	4.26126E-001	4.67135E-006	0.00000E+000	4.26800E-001	7.79627E-005	10	...........
	972	19.46	4.08171E-001	4.58127E-006	0.00000E+000	4.08800E-001	7.22080E-005	10	...........
	990	19.82	3.90089E-001	3.85897E-006	0.00000E+000	3.90800E-001	7.52105E-005	10	...........
	1008	20.18	3.72062E-001	3.51701E-006	0.00000E+000	3.72800E-001	6.73707E-005	10	...........
	1026	20.54	3.54171E-001	3.80893E-006	0.00000E+000	3.54800E-001	7.92971E-005	10	...........
	1044	20.9	3.36419E-001	4.71472E-006	0.00000E+000	3.36800E-001	6.16994E-005	10	...........
	1062	21.26	3.18142E-001	4.53456E-006	0.00000E+000	3.18800E-001	7.15408E-005	10	...........
	1080	21.62	3.00185E-001	4.42947E-006	0.00000E+000	3.00800E-001	6.95391E-005	10	...........
	1098	21.98	2.82195E-001	4.40612E-006	0.00000E+000	2.82800E-001	7.69619E-005	10	...........
	1116	22.34	2.64234E-001	4.26099E-006	0.00000E+000	2.64800E-001	7.89635E-005	10	...........
	1134	22.7	2.46194E-001	3.47864E-006	0.00000E+000	2.46800E-001	7.43764E-005	10	...........
	1152	23.06	2.28337E-001	4.37442E-006	0.00000E+000	2.28800E-001	7.09570E-005	10	...........
	1170	23.42	2.10417E-001	4.78812E-006	0.00000E+000	2.10800E-001	5.92808E-005	10	...........
	1188	23.78	1.92369E-001	3.94238E-006	0.00000E+000	1.92800E-001	6.90387E-005	10	...........
	1206	24.14	1.74472E-001	3.61042E-006	0.00000E+000	1.74800E-001	7.12072E-005	10	...........
	1224	24.5	1.56312E-001	3.47197E-006	0.00000E+000	1.56800E-001	7.82129E-005	10	...........
	1242	24.86	1.38364E-001	3.26346E-006	0.00000E+000	1.38800E-001	7.78793E-005	10	...........
	1260	25.22	1.20439E-001	3.89734E-006	0.00000E+000	1.20800E-001	7.67117E-005	10	...........
	1278	25.58	1.02677E-001	4.52289E-006	0.00000E+000	1.02800E-001	6.20330E-005	10	...........
	1296	25.94	8.44275E-002	4.39611E-006	0.00000E+000	8.48000E-002	7.02064E-005	10	...........
	1314	26.3	6.64362E-002	4.11586E-006	0.00000E+000	6.68000E-002	8.11320E-005	10	...........
	1332	26.66	4.84787E-002	3.66047E-006	0.00000E+000	4.88000E-002	7.93805E-005	10	...........
	1350	27.02	3.04619E-002	3.82228E-006	0.00000E+000	3.08000E-002	7.77125E-005	10	...........
	1368	27.38	1.25415E-002	2.72465E-006	0.00000E+000	1.28000E-002	7.58777E-005	10	...........
	1386	27.74	-5.49272E-003	2.48778E-006	0.00000E+000	-5.19998E-003	7.22080E-005	10	...........
	1404	28.1	-2.32905E-002	3.90401E-006	0.00000E+000	-2.32000E-002	6.17828E-005	10	...........
	1422	28.46	-4.13907E-002	3.15169E-006	0.00000E+000	-4.12000E-002	7.62113E-005	10	...........
	1440	28.82	-5.94314E-002	4.02245E-006	0.00000E+000	-5.92000E-002	7.90469E-005	10	...........
	1458	29.18	-7.73990E-002	3.08664E-006	0.00000E+000	-7.72000E-002	7.52939E-005	10	...........
	1476	29.54	-9.53948E-002	2.66961E-006	0.00000E+000	-9.52000E-002	7.92971E-005	10	...........
	1494	29.9	-1.13289E-001	3.64045E-006	0.00000E+000	-1.13200E-001	7.92137E-005	10	...........
	1512	30.26	-1.31215E-001	4.66801E-006	0.00000E+000	-1.31200E-001	7.73789E-005	10	...........
	1530	30.62	-1.49318E-001	4.56459E-006	0.00000E+000	-1.49200E-001	7.23748E-005	10	...........
	1548	30.98	-1.67384E-001	4.38110E-006	0.00000E+000	-1.67200E-001	7.22080E-005	10	...........
	1566	31.34	-1.85243E-001	4.51288E-006	0.00000E+000	-1.85200E-001	7.85465E-005	10	...........
	1584	31.7	-2.03211E-001	4.36441E-006	0.00000E+000	-2.03200E-001	7.74623E-005	10	...........
	1602	32.06	-2.21290E-001	4.30103E-006	0.00000E+000	-2.21200E-001	7.82963E-005	10	...........
	1620	32.42	-2.39242E-001	3.98408E-006	0.00000E+000	-2.39200E-001	7.69619E-005	10	...........
	1638	32.78	-2.57026E-001	5.01999E-006	0.00000E+000	-2.57200E-001	6.34508E-005	10	...........
	1656	33.14	-2.75196E-001	4.61130E-006	0.00000E+000	-2.75200E-001	7.16242E-005	10	...........
	1674	33.5	-2.93258E-001	4.30436E-006	0.00000E+000	-2.93200E-001	7.09570E-005	10	...........
	1692	33.86	-3.11170E-001	4.00410E-006	0.00000E+000	-3.11200E-001	6.87051E-005	10	...........
	1710	34.22	-3.29122E-001	3.59374E-006	0.00000E+000	-3.29200E-001	7.72955E-005	10	...........
	1728	34.58	-3.47182E-001	3.84563E-006	0.00000E+000	-3.47200E-001	7.19578E-005	10	...........
	1746	34.94	-3.65142E-001	3.57873E-006	0.00000E+000	-3.65200E-001	7.55441E-005	10	...........
	1764	35.3	-3.82994E-001	4.51788E-006	0.00000E+000	-3.83200E-001	6.46184E-005	10	...........
	1782	35.66	-4.01103E-001	4.35774E-006	0.00000E+000	-4.01200E-001	6.68703E-005	10	...........
	1800	36.02	-4.19027E-001	3.59541E-006	0.00000E+000	-4.19200E-001	7.30420E-005	10	...........
	1818	36.38	-4.37003E-001	3.91069E-006	0.00000E+000	-4.37200E-001	7.29586E-005	10	...........
	1836	36.74	-4.55047E-001	3.16504E-006	0.00000E+000	-4.55200E-001	7.72121E-005	10	...........
	1854	37.1	-4.73057E-001	3.72552E-006	0.00000E+000	-4.73200E-001	7.58777E-005	10	...........
	1872	37.46	-4.90791E-001	4.22096E-006	0.00000E+000	-4.91200E-001	7.43764E-005	10	...........
	1881	37.64	-5.00080E-001	4.06749E-006	0.00000E+000	-5.00200E-001	7.90469E-005	10	...........
CURVE2	TABLE
	Pt	T	Vf	Im	Vu	Sig	Ach	IERange	Over
	#	s	V vs. Ref.	A	V	V	V	#	bits
	1882	37.66	-4.98829E-001	4.19093E-006	0.00000E+000	-4.99000E-001	8.09652E-005	10	...........
	1892	37.86	-4.88658E-001	4.96494E-006	0.00000E+000	-4.89000E-001	7.02064E-005	10	...........
	1902	38.06	-4.78903E-001	4.14589E-006	0.00000E+000	-4.79000E-001	8.11320E-005	10	...........
	1912	38.26	-4.68698E-001	4.59461E-006	0.00000E+000	-4.69000E-001	6.74541E-005	10	...........
	1922	38.46	-4.58799E-001	3.43360E-006	0.00000E+000	-4.59000E-001	8.06316E-005	10	...........
	1932	38.66	-4.48896E-001	3.95739E-006	0.00000E+000	-4.49000E-001	7.70453E-005	10	...........
	1942	38.86	-4.38879E-001	4.18759E-006	0.00000E+000	-4.39000E-001	8.00477E-005	10	...........
	1952	39.06	-4.28877E-001	4.56792E-006	0.00000E+000	-4.29000E-001	7.22914E-005	10	...........
	1962	39.26	-4.18839E-001	4.25098E-006	0.00000E+000	-4.19000E-001	7.62113E-005	10	...........
	1972	39.46	-4.08921E-001	4.59461E-006	0.00000E+000	-4.09000E-001	7.42930E-005	10	...........
	1982	39.66	-3.98967E-001	3.96740E-006	0.00000E+000	-3.99000E-001	7.92137E-005	10	...........
	1992	39.86	-3.88861E-001	4.09918E-006	0.00000E+000	-3.89000E-001	7.28752E-005	10	...........
	2002	40.06	-3.78866E-001	3.97574E-006	0.00000E+000	-3.79000E-001	7.32088E-005	10	...........
	2012	40.26	-3.68978E-001	4.26433E-006	0.00000E+000	-3.69000E-001	7.58777E-005	10	...........
	2022	40.46	-3.58961E-001	3.94738E-006	0.00000E+000	-3.59000E-001	7.36258E-005	10	...........
	2032	40.66	-3.48996E-001	3.89234E-006	0.00000E+000	-3.49000E-001	7.62947E-005	10	...........
	2042	40.86	-3.38892E-001	4.16090E-006	0.00000E+000	-3.39000E-001	7.32088E-005	10	...........
	2052	41.06	-3.28978E-001	4.53456E-006	0.00000E+000	-3.29000E-001	7.87133E-005	10	...........
	2062	41.26	-3.18862E-001	4.98829E-006	0.00000E+000	-3.19000E-001	6.46184E-005	10	...........
	2072	41.46	-3.09015E-001	3.99409E-006	0.00000E+000	-3.09000E-001	8.36340E-005	10	...........
	2082	41.66	-2.98838E-001	4.79479E-006	0.00000E+000	-2.99000E-001	6.87885E-005	10	...........
	2092	41.86	-2.89019E-001	3.90068E-006	0.00000E+000	-2.89000E-001	8.17158E-005	10	...........
	2102	42.06	-2.78913E-001	4.54123E-006	0.00000E+000	-2.79000E-001	6.80379E-005	10	...........
	2112	42.26	-2.69098E-001	3.76389E-006	0.00000E+000	-2.69000E-001	7.57109E-005	10	...........
	2122	42.46	-2.58949E-001	4.47117E-006	0.00000E+000	-2.59000E-001	6.63699E-005	10	...........
	2132	42.66	-2.49062E-001	3.02158E-006	0.00000E+000	-2.49000E-001	8.28000E-005	10	...........
	2142	42.86	-2.39036E-001	4.44282E-006	0.00000E+000	-2.39000E-001	7.40428E-005	10	...........
	2152	43.06	-2.29180E-001	4.11920E-006	0.00000E+000	-2.29000E-001	8.69701E-005	10	...........
	2162	43.26	-2.19117E-001	4.23764E-006	0.00000E+000	-2.19000E-001	6.98727E-005	10	...........
	2172	43.46	-2.09057E-001	4.42447E-006	0.00000E+000	-2.09000E-001	8.77207E-005	10	...........
	2182	43.66	-1.99131E-001	4.29435E-006	0.00000E+000	-1.99000E-001	8.14656E-005	10	...........
	2192	43.86	-1.89210E-001	4.21762E-006	0.00000E+000	-1.89000E-001	7.97975E-005	10	...........
	2202	44.06	-1.79020E-001	4.57627E-006	0.00000E+000	-1.79000E-001	7.52105E-005	10	...........
	2212	44.26	-1.69167E-001	4.38443E-006	0.00000E+000	-1.69000E-001	7.77959E-005	10	...........
	2222	44.46	-1.59200E-001	4.09418E-006	0.00000E+000	-1.59000E-001	7.76291E-005	10	...........
	2232	44.66	-1.49031E-001	4.71305E-006	0.00000E+000	-1.49000E-001	6.55359E-005	10	...........
	2242	44.86	-1.39111E-001	4.27100E-006	0.00000E+000	-1.39000E-001	7.36258E-005	10	...........
	2252	45.06	-1.28964E-001	4.49119E-006	0.00000E+000	-1.29000E-001	6.20330E-005	10	...........
	2262	45.26	-1.19241E-001	4.48452E-006	0.00000E+000	-1.19000E-001	7.57943E-005	10	...........
	2272	45.46	-1.09077E-001	5.06002E-006	0.00000E+000	-1.09000E-001	6.37844E-005	10	...........
	2282	45.66	-9.92125E-002	3.59708E-006	0.00000E+000	-9.90000E-002	7.81295E-005	10	...........
	2292	45.86	-8.91991E-002	4.19093E-006	0.00000E+000	-8.90000E-002	7.69619E-005	10	...........
	2302	46.06	-7.92914E-002	3.61543E-006	0.00000E+000	-7.90000E-002	8.04647E-005	10	...........
	2312	46.26	-6.92539E-002	4.45783E-006	0.00000E+000	-6.90000E-002	7.28752E-005	10	...........
	2322	46.46	-5.92776E-002	4.08918E-006	0.00000E+000	-5.90000E-002	7.43764E-005	10	...........
	2332	46.66	-4.91888E-002	4.19260E-006	0.00000E+000	-4.90000E-002	7.66283E-005	10	...........
	2342	46.86	-3.93135E-002	3.86064E-006	0.00000E+000	-3.90000E-002	7.75457E-005	10	...........
	2352	47.06	-2.92663E-002	4.17425E-006	0.00000E+000	-2.90000E-002	8.08818E-005	10	...........
	2362	47.26	-1.91483E-002	4.32938E-006	0.00000E+000	-1.90000E-002	6.92889E-005	10	...........
	2372	47.46	-9.24679E-003	4.17091E-006	0.00000E+000	-8.99999E-003	8.03814E-005	10	...........
	2382	47.66	8.09185E-004	4.69303E-006	0.00000E+000	1.00002E-003	6.32840E-005	10	...........
	2392	47.86	1.06020E-002	4.18426E-006	0.00000E+000	1.10000E-002	7.84631E-005	10	...........
	2402	48.06	2.09406E-002	4.57460E-006	0.00000E+000	2.10000E-002	6.60363E-005	10	...........
	2412	48.26	3.07450E-002	3.73053E-006	0.00000E+000	3.10000E-002	7.77125E-005	10	...........
	2422	48.46	4.07042E-002	4.34606E-006	0.00000E+000	4.10000E-002	7.34590E-005	10	...........
	2432	48.66	5.06065E-002	3.26179E-006	0.00000E+000	5.10000E-002	8.45514E-005	10	...........
	2442	48.86	6.06246E-002	4.29936E-006	0.00000E+000	6.10000E-002	6.97060E-005	10	...........
	2452	49.06	7.07457E-002	3.42693E-006	0.00000E+000	7.10000E-002	7.85465E-005	10	...........
	2462	49.26	8.06342E-002	4.12087E-006	0.00000E+000	8.10000E-002	6.99561E-005	10	...........
	2472	49.46	9.04989E-002	4.34440E-006	0.00000E+000	9.10000E-002	8.01311E-005	10	...........
	2482	49.66	1.00585E-001	4.50287E-006	0.00000E+000	1.01000E-001	8.38008E-005	10	...........
	2492	49.86	1.10594E-001	4.13255E-006	0.00000E+000	1.11000E-001	7.72121E-005	10	...........
	2502	50.06	1.20604E-001	4.50454E-006	0.00000E+000	1.21000E-001	8.13822E-005	10	...........
	2512	50.26	1.30534E-001	4.07750E-006	0.00000E+000	1.31000E-001	7.79627E-005	10	...........
	2522	50.46	1.40479E-001	4.28101E-006	0.00000E+000	1.41000E-001	7.70453E-005	10	...........
	2532	50.66	1.50633E-001	4.17592E-006	0.00000E+000	1.51000E-001	7.22080E-005	10	...........
	2542	50.86	1.60538E-001	4.42613E-006	0.00000E+000	1.61000E-001	8.47182E-005	10	...........
	2552	51.06	1.70684E-001	5.22016E-006	0.00000E+000	1.71000E-001	6.16160E-005	10	...........
	2562	51.26	1.80448E-001	4.37276E-006	0.00000E+000	1.81000E-001	7.80461E-005	10	...........
	2572	51.46	1.90667E-001	5.21349E-006	0.00000E+000	1.91000E-001	6.14492E-005	10	...........
	2582	51.66	2.00517E-001	4.32104E-006	0.00000E+000	2.01000E-001	7.62947E-005	10	...........
	2592	51.86	2.10519E-001	4.97328E-006	0.00000E+000	2.11000E-001	6.94557E-005	10	...........
	2602	52.06	2.20401E-001	4.02579E-006	0.00000E+000	2.21000E-001	7.70453E-005	10	...........
	2612	52.26	2.30595E-001	4.44282E-006	0.00000E+000	2.31000E-001	6.94557E-005	10	...........
	2622	52.46	2.40455E-001	3.17004E-006	0.00000E+000	2.41000E-001	7.97141E-005	10	...........
	2632	52.66	2.50432E-001	4.30603E-006	0.00000E+000	2.51000E-001	6.77877E-005	10	...........
	2642	52.86	2.60409E-001	3.25512E-006	0.00000E+000	2.61000E-001	8.27166E-005	10	...........
	2652	53.06	2.70627E-001	3.78391E-006	0.00000E+000	2.71000E-001	7.20412E-005	10	...........
	2662	53.26	2.80464E-001	3.21008E-006	0.00000E+000	2.81000E-001	7.59611E-005	10	...........
	2672	53.46	2.90392E-001	3.74221E-006	0.00000E+000	2.91000E-001	7.61279E-005	10	...........
	2682	53.66	3.00346E-001	3.52869E-006	0.00000E+000	3.01000E-001	7.69619E-005	10	...........
	2692	53.86	3.10397E-001	4.09752E-006	0.00000E+000	3.11000E-001	7.15408E-005	10	...........
	2702	54.06	3.20491E-001	4.51288E-006	0.00000E+000	3.21000E-001	5.81131E-005	10	...........
	2712	54.26	3.30366E-001	3.94071E-006	0.00000E+000	3.31000E-001	7.43764E-005	10	...........
	2722	54.46	3.40475E-001	4.64633E-006	0.00000E+000	3.41000E-001	5.48605E-005	10	...........
	2732	54.66	3.50308E-001	3.96740E-006	0.00000E+000	3.51000E-001	7.31254E-005	10	...........
	2742	54.86	3.60513E-001	4.08083E-006	0.00000E+000	3.61000E-001	6.62865E-005	10	...........
	2752	55.06	3.58324E-001	3.39190E-006	0.00000E+000	3.59000E-001	7.18744E-005	10	...........
	2762	55.26	3.48359E-001	4.29435E-006	0.00000E+000	3.49000E-001	6.67869E-005	10	...........
	2772	55.46	3.38368E-001	3.94738E-006	0.00000E+000	3.39000E-001	7.87133E-005	10	...........
	2782	55.66	3.28460E-001	4.40445E-006	0.00000E+000	3.29000E-001	6.74541E-005	10	...........
	2792	55.86	3.18312E-001	3.95739E-006	0.00000E+000	3.19000E-001	7.27918E-005	10	...........
	2802	56.06	3.08364E-001	4.39778E-006	0.00000E+000	3.09000E-001	7.14574E-005	10	...........
	2812	56.26	2.98408E-001	3.98742E-006	0.00000E+000	2.99000E-001	7.72955E-005	10	...........
	2822	56.46	2.88457E-001	3.99242E-006	0.00000E+000	2.89000E-001	7.74623E-005	10	...........
	2832	56.66	2.78498E-001	3.94905E-006	0.00000E+000	2.79000E-001	7.46266E-005	10	...........
	2842	56.86	2.68390E-001	3.90568E-006	0.00000E+000	2.69000E-001	7.85465E-005	10	...........
	2852	57.06	2.58459E-001	3.30349E-006	0.00000E+000	2.59000E-001	7.95473E-005	10	...........
	2862	57.26	2.48468E-001	3.88400E-006	0.00000E+000	2.49000E-001	7.94639E-005	10	...........
	2872	57.46	2.38608E-001	3.55538E-006	0.00000E+000	2.39000E-001	6.51189E-005	10	...........
	2876	57.54	2.34452E-001	2.61623E-006	0.00000E+000	2.35000E-001	7.61279E-005	10	...........