File: 20191202/CVTESTKRISTALL5BOX4_2.DTA
EXPLAIN
TAG	CV
TITLE	LABEL	CV	Test &Identifier
DATE	LABEL	12/2/2019	Date
TIME	LABEL	9:54:40	Time
NOTES	NOTES	1	&Notes...

PSTAT	PSTAT	REF600-16093	Potentiostat
VINIT	POTEN	0.00000E+000	T	Initial &E (V)
VLIMIT1	POTEN	8.00000E-001	F	Scan Limit &1 (V)
VLIMIT2	POTEN	-5.00000E-001	F	Scan Limit &2 (V)
VFINAL	POTEN	0.00000E+000	T	Final &E (V)
SCANRATE	QUANT	4.99999E+001	&Scan Rate (mV/s)
STEPSIZE	QUANT	1.00000E+000	St&ep Size (mV)
CYCLES	IQUANT	5	C&ycles (#)
IMODE	SELECTOR	1	I/E Range &Mode
IRANGE	QUANT	1.50000E+001	&Max Current (mA)
AREA	QUANT	1.00000E+000	Electrode &Area (cm^2)
ELECTRODETYPE	SELECTOR	0	Electrode Type
STRIPPING	TOGGLE	F	Used for Stripping
POLARITY	TOGGLE	F	Signal Polarity
CONDIT	TWOPARAM	F	1.50000E+001	0.00000E+000	Conditionin&g	Time(s)	E(V)
DELAY	TWOPARAM	T	5.00000E+000	0.00000E+000	Init. De&lay	Time(s)	Stab.(mV/s)
EQDELAY	QUANT	3.00000E+000	Equil. &Time (s)
IRCOMP	SELECTOR	0	IRCom&p
PFCOR	QUANT	0.00000E+000	PF Corr. (ohm)
SAMPLINGMODE	SELECTOR	2	Sampling &Mode
OCVCURVE	TABLE	20
	Pt	T	Vf	Vm	Ach	Over
	#	s	V vs. Ref.	V	V	bits
	0	0.25	1.90574E-001	1.90574E-001	8.61001E-005	...........
	1	0.5	1.90575E-001	1.90614E-001	8.38502E-005	...........
	2	0.75	1.90580E-001	1.90676E-001	8.56002E-005	...........
	3	1	1.90592E-001	1.90541E-001	8.72251E-005	...........
	4	1.25	1.90605E-001	1.90602E-001	9.09751E-005	...........
	5	1.5	1.90605E-001	1.90491E-001	8.63501E-005	...........
	6	1.75	1.90590E-001	1.90566E-001	8.52668E-005	...........
	7	2	1.90567E-001	1.90443E-001	9.68917E-005	...........
	8	2.25	1.90541E-001	1.90454E-001	8.26835E-005	...........
	9	2.5	1.90515E-001	1.90556E-001	8.93084E-005	...........
	10	2.75	1.90493E-001	1.90348E-001	8.70585E-005	...........
	11	3	1.90477E-001	1.90426E-001	9.20584E-005	...........
	12	3.25	1.90456E-001	1.90353E-001	9.07251E-005	...........
	13	3.5	1.90429E-001	1.90413E-001	8.77668E-005	...........
	14	3.75	1.90405E-001	1.90327E-001	8.64335E-005	...........
	15	4	1.90386E-001	1.90274E-001	8.51002E-005	...........
	16	4.25	1.90365E-001	1.90375E-001	8.46835E-005	...........
	17	4.5	1.90344E-001	1.90253E-001	8.66835E-005	...........
	18	4.75	1.90325E-001	1.90286E-001	8.68085E-005	...........
	19	5	1.90309E-001	1.90228E-001	8.63501E-005	...........
EOC	QUANT	0.190309	Open Circuit (V)
PSTATMODEL	IQUANT	4	Pstat Model
PSTATSECTION	LABEL	REF600-16093	Pstat Section
PSTATSERIALNO	LABEL	16093	Pstat Serial Number
CTRLMODE	IQUANT	1	Control Mode
IESTAB	IQUANT	2	I/E Stability
CASPEED	IQUANT	2	Control Amp Speed
CONVENTION	IQUANT	1	Current Convention
ICHRANGE	IQUANT	2	Ich Range
ICHRANGEMODE	TOGGLE	F	Ich Auto Range
ICHOFFSETENABLE	TOGGLE	F	Ich Offset Enable
ICHOFFSET	QUANT	0	Ich Offset (V)
ICHFILTER	IQUANT	2	Ich Filter
VCHRANGE	IQUANT	2	Vch Range
VCHRANGEMODE	TOGGLE	F	Vch Auto Range
VCHOFFSETENABLE	TOGGLE	F	Vch Offset Enable
VCHOFFSET	QUANT	0	Vch Offset (V)
VCHFILTER	IQUANT	2	Vch Filter
ACHRANGE	IQUANT	2	Ach Range
ACHOFFSETENABLE	TOGGLE	F	Ach Offset Enable
ACHOFFSET	QUANT	0	Ach Offset (V)
ACHFILTER	IQUANT	1	Ach Filter
IERANGELOWERLIMIT	IQUANT	1	I/E Range Lower Limit
IERANGEMODE	TOGGLE	F	I/E AutoRange
IERANGE	IQUANT	10	I/E Range
POSFEEDENABLE	TOGGLE	F	Positive Feedback IR Comp
POSFEEDRESISTANCE	QUANT	0	Positive Feedback Resistance (ohm)
ACHSELECT	IQUANT	0	Ach Select
CABLEID	IQUANT	14	Cable ID
DCCALDATE	LABEL	11/5/2019	DC Calibration Date
ACCALDATE	LABEL		AC Calibration Date
THERMOSELECT	IQUANT	1	Thermo Select
FRAMEWORKVERSION	QUANT	6.12	Framework Version
INSTRUMENTVERSION	LABEL	3.11	Instrument Version
CURVE1	TABLE
	Pt	T	Vf	Im	Vu	Sig	Ach	IERange	Over
	#	s	V vs. Ref.	A	V	V	V	#	bits
	0	0.02	1.90134E-001	-1.80733E-006	0.00000E+000	1.90300E-001	1.83893E-004	10	...........
	18	0.38	2.08262E-001	9.21710E-007	0.00000E+000	2.08300E-001	1.83476E-004	10	...........
	36	0.74	2.26168E-001	1.03181E-006	0.00000E+000	2.26300E-001	1.81892E-004	10	...........
	54	1.1	2.44089E-001	2.25454E-006	0.00000E+000	2.44300E-001	1.69798E-004	10	...........
	72	1.46	2.62074E-001	2.90177E-006	0.00000E+000	2.62300E-001	1.77305E-004	10	...........
	90	1.82	2.80219E-001	3.87929E-006	0.00000E+000	2.80300E-001	1.79723E-004	10	...........
	108	2.18	2.98107E-001	5.69754E-006	0.00000E+000	2.98300E-001	1.77471E-004	10	...........
	126	2.54	3.16040E-001	7.00200E-006	0.00000E+000	3.16300E-001	1.72217E-004	10	...........
	144	2.9	3.33958E-001	1.02749E-005	0.00000E+000	3.34300E-001	1.77305E-004	10	...........
	162	3.26	3.52176E-001	1.41449E-005	0.00000E+000	3.52300E-001	1.69381E-004	10	...........
	180	3.62	3.70018E-001	2.08124E-005	0.00000E+000	3.70300E-001	1.76637E-004	10	...........
	198	3.98	3.88008E-001	2.85391E-005	0.00000E+000	3.88300E-001	1.77638E-004	10	...........
	216	4.34	4.05927E-001	4.25029E-005	0.00000E+000	4.06300E-001	1.76554E-004	10	...........
	234	4.7	4.24249E-001	6.67607E-005	0.00000E+000	4.24300E-001	1.79807E-004	10	...........
	252	5.06	4.41977E-001	9.81547E-005	0.00000E+000	4.42300E-001	1.77305E-004	10	...........
	270	5.42	4.59955E-001	1.32485E-004	0.00000E+000	4.60300E-001	1.76554E-004	10	...........
	288	5.78	4.77825E-001	1.56442E-004	0.00000E+000	4.78300E-001	1.67380E-004	10	...........
	306	6.14	4.95895E-001	1.61745E-004	0.00000E+000	4.96300E-001	1.79973E-004	10	...........
	324	6.5	5.13967E-001	1.50781E-004	0.00000E+000	5.14300E-001	1.73718E-004	10	...........
	342	6.86	5.31888E-001	1.32528E-004	0.00000E+000	5.32300E-001	1.74969E-004	10	...........
	360	7.22	5.49823E-001	1.15939E-004	0.00000E+000	5.50300E-001	1.75637E-004	10	...........
	378	7.58	5.67801E-001	1.00510E-004	0.00000E+000	5.68300E-001	1.81308E-004	10	...........
	396	7.94	5.85963E-001	9.00043E-005	0.00000E+000	5.86300E-001	1.79306E-004	10	...........
	414	8.3	6.03829E-001	8.19222E-005	0.00000E+000	6.04300E-001	1.69131E-004	10	...........
	432	8.66	6.21755E-001	7.37768E-005	0.00000E+000	6.22300E-001	1.81725E-004	10	...........
	450	9.02	6.39769E-001	6.80718E-005	0.00000E+000	6.40300E-001	1.80974E-004	10	...........
	468	9.38	6.57853E-001	6.34712E-005	0.00000E+000	6.58300E-001	1.72634E-004	10	...........
	486	9.74	6.75751E-001	6.12209E-005	0.00000E+000	6.76300E-001	1.79973E-004	10	...........
	504	10.1	6.93732E-001	5.88021E-005	0.00000E+000	6.94300E-001	1.84727E-004	10	...........
	522	10.46	7.11710E-001	5.71023E-005	0.00000E+000	7.12300E-001	1.79056E-004	10	...........
	540	10.82	7.29728E-001	5.59146E-005	0.00000E+000	7.30300E-001	1.65712E-004	10	...........
	558	11.18	7.47678E-001	5.51339E-005	0.00000E+000	7.48300E-001	1.78806E-004	10	...........
	576	11.54	7.65694E-001	5.52974E-005	0.00000E+000	7.66300E-001	1.80224E-004	10	...........
	594	11.9	7.83585E-001	5.51706E-005	0.00000E+000	7.84300E-001	1.83310E-004	10	...........
	612	12.26	7.97669E-001	4.69318E-005	0.00000E+000	7.98300E-001	1.83310E-004	10	...........
	630	12.62	7.79670E-001	2.60219E-005	0.00000E+000	7.80300E-001	1.77972E-004	10	...........
	648	12.98	7.61807E-001	1.49322E-005	0.00000E+000	7.62300E-001	1.83476E-004	10	...........
	666	13.34	7.43665E-001	9.88285E-006	0.00000E+000	7.44300E-001	1.65879E-004	10	...........
	684	13.7	7.25694E-001	5.85767E-006	0.00000E+000	7.26300E-001	1.83226E-004	10	...........
	702	14.06	7.07749E-001	2.57482E-006	0.00000E+000	7.08300E-001	1.76804E-004	10	...........
	720	14.42	6.89892E-001	1.38044E-006	0.00000E+000	6.90300E-001	1.79556E-004	10	...........
	738	14.78	6.71726E-001	-6.52994E-007	0.00000E+000	6.72300E-001	1.82059E-004	10	...........
	756	15.14	6.53722E-001	-1.72059E-006	0.00000E+000	6.54300E-001	1.78722E-004	10	...........
	774	15.5	6.35817E-001	-2.54631E-006	0.00000E+000	6.36300E-001	1.82726E-004	10	...........
	792	15.86	6.17939E-001	-2.31778E-006	0.00000E+000	6.18300E-001	1.69882E-004	10	...........
	810	16.22	5.99771E-001	-2.92330E-006	0.00000E+000	6.00300E-001	1.84227E-004	10	...........
	828	16.58	5.81794E-001	-2.95667E-006	0.00000E+000	5.82300E-001	1.85895E-004	10	...........
	846	16.94	5.63837E-001	-2.95667E-006	0.00000E+000	5.64300E-001	1.80224E-004	10	...........
	864	17.3	5.45951E-001	-4.31452E-006	0.00000E+000	5.46300E-001	1.80224E-004	10	...........
	882	17.66	5.27888E-001	-4.44796E-006	0.00000E+000	5.28300E-001	1.77054E-004	10	...........
	900	18.02	5.09828E-001	-6.42969E-006	0.00000E+000	5.10300E-001	1.85144E-004	10	...........
	918	18.38	4.91933E-001	-6.53812E-006	0.00000E+000	4.92300E-001	1.68547E-004	10	...........
	936	18.74	4.73973E-001	-8.46980E-006	0.00000E+000	4.74300E-001	1.79473E-004	10	...........
	954	19.1	4.56005E-001	-8.26462E-006	0.00000E+000	4.56300E-001	1.80724E-004	10	...........
	972	19.46	4.37859E-001	-8.69666E-006	0.00000E+000	4.38300E-001	1.80224E-004	10	...........
	990	19.82	4.19963E-001	-9.70754E-006	0.00000E+000	4.20300E-001	1.73385E-004	10	...........
	1008	20.18	4.02025E-001	-1.08869E-005	0.00000E+000	4.02300E-001	1.72467E-004	10	...........
	1026	20.54	3.84117E-001	-1.17810E-005	0.00000E+000	3.84300E-001	1.69548E-004	10	...........
	1044	20.9	3.66012E-001	-1.15658E-005	0.00000E+000	3.66300E-001	1.69048E-004	10	...........
	1062	21.26	3.48027E-001	-1.31906E-005	0.00000E+000	3.48300E-001	1.75220E-004	10	...........
	1080	21.62	3.30083E-001	-1.43633E-005	0.00000E+000	3.30300E-001	1.80474E-004	10	...........
	1098	21.98	3.12058E-001	-1.76678E-005	0.00000E+000	3.12300E-001	1.75553E-004	10	...........
	1116	22.34	2.94025E-001	-2.08689E-005	0.00000E+000	2.94300E-001	1.82809E-004	10	...........
	1134	22.7	2.76111E-001	-2.44621E-005	0.00000E+000	2.76300E-001	1.76971E-004	10	...........
	1152	23.06	2.58153E-001	-2.77499E-005	0.00000E+000	2.58300E-001	1.69298E-004	10	...........
	1170	23.42	2.40137E-001	-3.17617E-005	0.00000E+000	2.40300E-001	1.79890E-004	10	...........
	1188	23.78	2.22082E-001	-3.63824E-005	0.00000E+000	2.22300E-001	1.85061E-004	10	...........
	1206	24.14	2.04181E-001	-4.22709E-005	0.00000E+000	2.04300E-001	1.84310E-004	10	...........
	1224	24.5	1.86180E-001	-4.72702E-005	0.00000E+000	1.86300E-001	1.88564E-004	10	...........
	1242	24.86	1.68381E-001	-5.61847E-005	0.00000E+000	1.68300E-001	1.77221E-004	10	...........
	1260	25.22	1.50183E-001	-6.57430E-005	0.00000E+000	1.50300E-001	1.76554E-004	10	...........
	1278	25.58	1.32206E-001	-7.67326E-005	0.00000E+000	1.32300E-001	1.71300E-004	10	...........
	1296	25.94	1.14217E-001	-9.02727E-005	0.00000E+000	1.14300E-001	1.78889E-004	10	...........
	1314	26.3	9.63877E-002	-1.04939E-004	0.00000E+000	9.63000E-002	1.77138E-004	10	...........
	1332	26.66	7.82413E-002	-1.17727E-004	0.00000E+000	7.83000E-002	1.81391E-004	10	...........
	1350	27.02	6.02446E-002	-1.31674E-004	0.00000E+000	6.03000E-002	1.83643E-004	10	...........
	1368	27.38	4.23075E-002	-1.40883E-004	0.00000E+000	4.23000E-002	1.81391E-004	10	...........
	1386	27.74	2.43998E-002	-1.44076E-004	0.00000E+000	2.43000E-002	1.80557E-004	10	...........
	1404	28.1	6.31139E-003	-1.38108E-004	0.00000E+000	6.30000E-003	1.80307E-004	10	...........
	1422	28.46	-1.17000E-002	-1.27395E-004	0.00000E+000	-1.17000E-002	1.75553E-004	10	...........
	1440	28.82	-2.95769E-002	-1.14199E-004	0.00000E+000	-2.97000E-002	1.82059E-004	10	...........
	1458	29.18	-4.75669E-002	-1.01546E-004	0.00000E+000	-4.77000E-002	1.81058E-004	10	...........
	1476	29.54	-6.56337E-002	-9.04395E-005	0.00000E+000	-6.57000E-002	1.79223E-004	10	...........
	1494	29.9	-8.36113E-002	-8.16352E-005	0.00000E+000	-8.37000E-002	1.81141E-004	10	...........
	1512	30.26	-1.01568E-001	-7.35431E-005	0.00000E+000	-1.01700E-001	1.79223E-004	10	...........
	1530	30.62	-1.19509E-001	-6.65237E-005	0.00000E+000	-1.19700E-001	1.72467E-004	10	...........
	1548	30.98	-1.37363E-001	-6.26820E-005	0.00000E+000	-1.37700E-001	1.76054E-004	10	...........
	1566	31.34	-1.55510E-001	-6.00414E-005	0.00000E+000	-1.55700E-001	1.82309E-004	10	...........
	1584	31.7	-1.73489E-001	-5.83132E-005	0.00000E+000	-1.73700E-001	1.83810E-004	10	...........
	1602	32.06	-1.91468E-001	-5.68086E-005	0.00000E+000	-1.91700E-001	1.81224E-004	10	...........
	1620	32.42	-2.09273E-001	-5.49753E-005	0.00000E+000	-2.09700E-001	1.77972E-004	10	...........
	1638	32.78	-2.27455E-001	-5.40261E-005	0.00000E+000	-2.27700E-001	1.78305E-004	10	...........
	1656	33.14	-2.45412E-001	-5.21862E-005	0.00000E+000	-2.45700E-001	1.78389E-004	10	...........
	1674	33.5	-2.63400E-001	-5.30720E-005	0.00000E+000	-2.63700E-001	1.79640E-004	10	...........
	1692	33.86	-2.81243E-001	-5.36291E-005	0.00000E+000	-2.81700E-001	1.74552E-004	10	...........
	1710	34.22	-2.99414E-001	-5.30970E-005	0.00000E+000	-2.99700E-001	1.76554E-004	10	...........
	1728	34.58	-3.17409E-001	-5.37559E-005	0.00000E+000	-3.17700E-001	1.76888E-004	10	...........
	1746	34.94	-3.35321E-001	-5.19543E-005	0.00000E+000	-3.35700E-001	1.78556E-004	10	...........
	1764	35.3	-3.53231E-001	-5.25382E-005	0.00000E+000	-3.53700E-001	1.72217E-004	10	...........
	1782	35.66	-3.71332E-001	-5.32087E-005	0.00000E+000	-3.71700E-001	1.68547E-004	10	...........
	1800	36.02	-3.89366E-001	-5.62047E-005	0.00000E+000	-3.89700E-001	1.81641E-004	10	...........
	1818	36.38	-4.07298E-001	-5.92090E-005	0.00000E+000	-4.07700E-001	1.80557E-004	10	...........
	1836	36.74	-4.25230E-001	-6.16261E-005	0.00000E+000	-4.25700E-001	1.76304E-004	10	...........
	1854	37.1	-4.43242E-001	-6.47238E-005	0.00000E+000	-4.43700E-001	1.78889E-004	10	...........
	1872	37.46	-4.61277E-001	-6.76863E-005	0.00000E+000	-4.61700E-001	1.76554E-004	10	...........
	1890	37.82	-4.79225E-001	-7.12761E-005	0.00000E+000	-4.79700E-001	1.79390E-004	10	...........
	1908	38.18	-4.97166E-001	-8.14033E-005	0.00000E+000	-4.97700E-001	1.74135E-004	10	...........
	1910	38.22	-4.99227E-001	-7.76000E-005	0.00000E+000	-4.99700E-001	1.70049E-004	10	...........
CURVE2	TABLE
	Pt	T	Vf	Im	Vu	Sig	Ach	IERange	Over
	#	s	V vs. Ref.	A	V	V	V	#	bits
	1911	38.24	-4.98563E-001	-6.25569E-005	0.00000E+000	-4.99000E-001	1.71300E-004	10	...........
	1936	38.74	-4.73584E-001	-3.50563E-005	0.00000E+000	-4.74000E-001	1.71300E-004	10	...........
	1961	39.24	-4.48588E-001	-3.54216E-005	0.00000E+000	-4.49000E-001	1.77722E-004	10	...........
	1986	39.74	-4.23599E-001	-3.74500E-005	0.00000E+000	-4.24000E-001	1.67296E-004	10	...........
	2011	40.24	-3.98673E-001	-3.57135E-005	0.00000E+000	-3.99000E-001	1.82893E-004	10	...........
	2036	40.74	-3.73620E-001	-3.82657E-005	0.00000E+000	-3.74000E-001	1.67713E-004	10	...........
	2061	41.24	-3.48618E-001	-3.81273E-005	0.00000E+000	-3.49000E-001	1.83143E-004	10	...........
	2086	41.74	-3.23712E-001	-3.64024E-005	0.00000E+000	-3.24000E-001	1.78639E-004	10	...........
	2111	42.24	-2.98702E-001	-3.60188E-005	0.00000E+000	-2.99000E-001	1.82059E-004	10	...........
	2136	42.74	-2.73749E-001	-3.58353E-005	0.00000E+000	-2.74000E-001	1.73802E-004	10	...........
	2161	43.24	-2.48733E-001	-3.44891E-005	0.00000E+000	-2.49000E-001	1.76554E-004	10	...........
	2186	43.74	-2.23686E-001	-3.44874E-005	0.00000E+000	-2.24000E-001	1.85144E-004	10	...........
	2211	44.24	-1.98844E-001	-3.34449E-005	0.00000E+000	-1.99000E-001	1.80807E-004	10	...........
	2236	44.74	-1.73820E-001	-3.08610E-005	0.00000E+000	-1.74000E-001	1.82142E-004	10	...........
	2261	45.24	-1.48869E-001	-3.18919E-005	0.00000E+000	-1.49000E-001	1.73468E-004	10	...........
	2286	45.74	-1.23851E-001	-2.98501E-005	0.00000E+000	-1.24000E-001	1.74052E-004	10	...........
	2311	46.24	-9.88186E-002	-2.77900E-005	0.00000E+000	-9.90000E-002	1.63460E-004	10	...........
	2336	46.74	-7.39261E-002	-2.67607E-005	0.00000E+000	-7.40000E-002	1.80724E-004	10	...........
	2361	47.24	-4.89107E-002	-2.48357E-005	0.00000E+000	-4.90000E-002	1.75470E-004	10	...........
	2386	47.74	-2.38224E-002	-2.18932E-005	0.00000E+000	-2.40000E-002	1.73885E-004	10	...........
	2411	48.24	9.62430E-004	-2.02284E-005	0.00000E+000	1.00002E-003	1.75386E-004	10	...........
	2436	48.74	2.60460E-002	-1.79230E-005	0.00000E+000	2.60000E-002	1.72801E-004	10	...........
	2461	49.24	5.09723E-002	-1.50889E-005	0.00000E+000	5.10000E-002	1.79973E-004	10	...........
	2486	49.74	7.59962E-002	-1.27085E-005	0.00000E+000	7.60000E-002	1.81475E-004	10	...........
	2511	50.24	1.01095E-001	-9.73924E-006	0.00000E+000	1.01000E-001	1.73301E-004	10	...........
	2536	50.74	1.25832E-001	-7.32047E-006	0.00000E+000	1.26000E-001	1.80057E-004	10	...........
	2561	51.24	1.50931E-001	-4.23611E-006	0.00000E+000	1.51000E-001	1.76304E-004	10	...........
	2586	51.74	1.75852E-001	-2.14596E-006	0.00000E+000	1.76000E-001	1.78139E-004	10	...........
	2611	52.24	2.00880E-001	7.84925E-007	0.00000E+000	2.01000E-001	1.77888E-004	10	...........
	2636	52.74	2.25965E-001	4.07446E-006	0.00000E+000	2.26000E-001	1.77638E-004	10	...........
	2661	53.24	2.50711E-001	7.06372E-006	0.00000E+000	2.51000E-001	1.82642E-004	10	...........
	2686	53.74	2.75796E-001	8.70015E-006	0.00000E+000	2.76000E-001	1.83810E-004	10	...........
	2711	54.24	3.00841E-001	1.23116E-005	0.00000E+000	3.01000E-001	1.67296E-004	10	...........
	2736	54.74	3.25753E-001	1.51941E-005	0.00000E+000	3.26000E-001	1.79473E-004	10	...........
	2761	55.24	3.50760E-001	2.11043E-005	0.00000E+000	3.51000E-001	1.72217E-004	10	...........
	2786	55.74	3.75668E-001	2.94832E-005	0.00000E+000	3.76000E-001	1.75970E-004	10	...........
	2811	56.24	4.00689E-001	4.48666E-005	0.00000E+000	4.01000E-001	1.79640E-004	10	...........
	2836	56.74	4.25845E-001	6.67924E-005	0.00000E+000	4.26000E-001	1.63710E-004	10	...........
	2861	57.24	4.50573E-001	9.34373E-005	0.00000E+000	4.51000E-001	1.80641E-004	10	...........
[...]
	12381	247.64	-4.28489E-001	-3.36517E-005	0.00000E+000	-4.29000E-001	1.80641E-004	10	...........
	12388	247.78	-4.21619E-001	-3.20820E-005	0.00000E+000	-4.22000E-001	1.74219E-004	10	...........
	12395	247.92	-4.14559E-001	-3.09761E-005	0.00000E+000	-4.15000E-001	1.69715E-004	10	...........
	12402	248.06	-4.07594E-001	-3.09210E-005	0.00000E+000	-4.08000E-001	1.79556E-004	10	...........
	12409	248.2	-4.00646E-001	-2.96399E-005	0.00000E+000	-4.01000E-001	1.78806E-004	10	...........
	12416	248.34	-3.93493E-001	-3.31313E-005	0.00000E+000	-3.94000E-001	1.60124E-004	10	...........
	12423	248.48	-3.86591E-001	-3.38135E-005	0.00000E+000	-3.87000E-001	1.79056E-004	10	...........
	12430	248.62	-3.79679E-001	-3.58770E-005	0.00000E+000	-3.80000E-001	1.76554E-004	10	...........
	12437	248.76	-3.72626E-001	-3.54333E-005	0.00000E+000	-3.73000E-001	1.63460E-004	10	...........
	12444	248.9	-3.65640E-001	-3.59370E-005	0.00000E+000	-3.66000E-001	1.72134E-004	10	...........
	12451	249.04	-3.58661E-001	-3.60622E-005	0.00000E+000	-3.59000E-001	1.81391E-004	10	...........
	12458	249.18	-3.51605E-001	-3.57152E-005	0.00000E+000	-3.52000E-001	1.71133E-004	10	...........
	12465	249.32	-3.44690E-001	-3.61272E-005	0.00000E+000	-3.45000E-001	1.72968E-004	10	...........
	12472	249.46	-3.37618E-001	-3.45992E-005	0.00000E+000	-3.38000E-001	1.71466E-004	10	...........
	12479	249.6	-3.30635E-001	-3.51080E-005	0.00000E+000	-3.31000E-001	1.73468E-004	10	...........
	12486	249.74	-3.23714E-001	-3.45775E-005	0.00000E+000	-3.24000E-001	1.72884E-004	10	...........
	12493	249.88	-3.16508E-001	-3.49212E-005	0.00000E+000	-3.17000E-001	1.78222E-004	10	...........
	12500	250.02	-3.09629E-001	-3.48494E-005	0.00000E+000	-3.10000E-001	1.67463E-004	10	...........
	12507	250.16	-3.02713E-001	-3.56234E-005	0.00000E+000	-3.03000E-001	1.82225E-004	10	...........
	12514	250.3	-2.95697E-001	-3.54700E-005	0.00000E+000	-2.96000E-001	1.80807E-004	10	...........
	12521	250.44	-2.88647E-001	-3.43724E-005	0.00000E+000	-2.89000E-001	1.76220E-004	10	...........
	12528	250.58	-2.81718E-001	-3.50162E-005	0.00000E+000	-2.82000E-001	1.74052E-004	10	...........
	12535	250.72	-2.74713E-001	-3.48745E-005	0.00000E+000	-2.75000E-001	1.78806E-004	10	...........
	12542	250.86	-2.67791E-001	-3.43807E-005	0.00000E+000	-2.68000E-001	1.70966E-004	10	...........
	12549	251	-2.60589E-001	-3.43106E-005	0.00000E+000	-2.61000E-001	1.72884E-004	10	...........
	12556	251.14	-2.53741E-001	-3.44591E-005	0.00000E+000	-2.54000E-001	1.79723E-004	10	...........
	12563	251.28	-2.46758E-001	-3.33865E-005	0.00000E+000	-2.47000E-001	1.70716E-004	10	...........
	12570	251.42	-2.39638E-001	-3.35800E-005	0.00000E+000	-2.40000E-001	1.73635E-004	10	...........
	12577	251.56	-2.32707E-001	-3.32947E-005	0.00000E+000	-2.33000E-001	1.82392E-004	10	...........
	12584	251.7	-2.25769E-001	-3.31780E-005	0.00000E+000	-2.26000E-001	1.71133E-004	10	...........
	12591	251.84	-2.18785E-001	-3.39787E-005	0.00000E+000	-2.19000E-001	1.77722E-004	10	...........
	12598	251.98	-2.11810E-001	-3.36501E-005	0.00000E+000	-2.12000E-001	1.81558E-004	10	...........
	12605	252.12	-2.04658E-001	-3.33565E-005	0.00000E+000	-2.05000E-001	1.74052E-004	10	...........
	12612	252.26	-1.97811E-001	-3.36567E-005	0.00000E+000	-1.98000E-001	1.80557E-004	10	...........
	12619	252.4	-1.90900E-001	-3.36350E-005	0.00000E+000	-1.91000E-001	1.75637E-004	10	...........
	12626	252.54	-1.83636E-001	-3.24940E-005	0.00000E+000	-1.84000E-001	1.62543E-004	10	...........
	12633	252.68	-1.76811E-001	-3.23306E-005	0.00000E+000	-1.77000E-001	1.82225E-004	10	...........
	12640	252.82	-1.69852E-001	-3.19636E-005	0.00000E+000	-1.70000E-001	1.83727E-004	10	...........
	12647	252.96	-1.62769E-001	-3.15866E-005	0.00000E+000	-1.63000E-001	1.76387E-004	10	...........
	12654	253.1	-1.55829E-001	-3.13547E-005	0.00000E+000	-1.56000E-001	1.80307E-004	10	...........
	12661	253.24	-1.48873E-001	-3.12380E-005	0.00000E+000	-1.49000E-001	1.74219E-004	10	...........
	12668	253.38	-1.41838E-001	-3.18351E-005	0.00000E+000	-1.42000E-001	1.63210E-004	10	...........
	12675	253.52	-1.34908E-001	-3.21120E-005	0.00000E+000	-1.35000E-001	1.82976E-004	10	...........
	12682	253.66	-1.27684E-001	-3.16917E-005	0.00000E+000	-1.28000E-001	1.77805E-004	10	...........
	12689	253.8	-1.20839E-001	-3.11979E-005	0.00000E+000	-1.21000E-001	1.67797E-004	10	...........
	12696	253.94	-1.13905E-001	-3.12113E-005	0.00000E+000	-1.14000E-001	1.80557E-004	10	...........
	12703	254.08	-1.06810E-001	-3.01704E-005	0.00000E+000	-1.07000E-001	1.80307E-004	10	...........
	12710	254.22	-9.98595E-002	-2.97050E-005	0.00000E+000	-1.00000E-001	1.78806E-004	10	...........
	12717	254.36	-9.29121E-002	-2.96549E-005	0.00000E+000	-9.30000E-002	1.70799E-004	10	...........
	12724	254.5	-8.58428E-002	-2.85690E-005	0.00000E+000	-8.60000E-002	1.81308E-004	10	...........
	12731	254.64	-7.88967E-002	-2.80735E-005	0.00000E+000	-7.90000E-002	1.77555E-004	10	...........
	12738	254.78	-7.18747E-002	-2.83905E-005	0.00000E+000	-7.20000E-002	1.80390E-004	10	...........
	12745	254.92	-6.49412E-002	-2.78784E-005	0.00000E+000	-6.50000E-002	1.79473E-004	10	...........
	12752	255.06	-5.79019E-002	-2.75798E-005	0.00000E+000	-5.80000E-002	1.70883E-004	10	...........
	12759	255.2	-5.08384E-002	-2.79551E-005	0.00000E+000	-5.10000E-002	1.82559E-004	10	...........
	12766	255.34	-4.39197E-002	-2.71944E-005	0.00000E+000	-4.40000E-002	1.83476E-004	10	...........
	12773	255.48	-3.68816E-002	-2.66640E-005	0.00000E+000	-3.70000E-002	1.64211E-004	10	...........
	12780	255.62	-2.98707E-002	-2.65372E-005	0.00000E+000	-3.00000E-002	1.81224E-004	10	...........
	12787	255.76	-2.29723E-002	-2.49808E-005	0.00000E+000	-2.30000E-002	1.82059E-004	10	...........
	12794	255.9	-1.59020E-002	-2.44204E-005	0.00000E+000	-1.60000E-002	1.81308E-004	10	...........
	12801	256.04	-8.93792E-003	-2.39082E-005	0.00000E+000	-8.99999E-003	1.84394E-004	10	...........
	12808	256.18	-1.93210E-003	-2.28924E-005	0.00000E+000	-1.99999E-003	1.83560E-004	10	...........
	12815	256.32	5.09665E-003	-2.21033E-005	0.00000E+000	5.00001E-003	1.73135E-004	10	...........
	12822	256.46	1.19535E-002	-2.23269E-005	0.00000E+000	1.20000E-002	1.86145E-004	10	...........
	12829	256.6	1.89894E-002	-2.23502E-005	0.00000E+000	1.90000E-002	1.83810E-004	10	...........
	12836	256.74	2.60380E-002	-2.10691E-005	0.00000E+000	2.60000E-002	1.72384E-004	10	...........
	12843	256.88	3.29590E-002	-2.05603E-005	0.00000E+000	3.30000E-002	1.90315E-004	10	...........
	12850	257.02	4.02137E-002	-2.00933E-005	0.00000E+000	4.00000E-002	1.79723E-004	10	...........
	12857	257.16	4.70293E-002	-1.90607E-005	0.00000E+000	4.70000E-002	1.81141E-004	10	...........
	12864	257.3	5.38955E-002	-1.81516E-005	0.00000E+000	5.40000E-002	1.79807E-004	10	...........
	12871	257.44	6.10314E-002	-1.75794E-005	0.00000E+000	6.10000E-002	1.84978E-004	10	...........
	12878	257.58	6.80213E-002	-1.55276E-005	0.00000E+000	6.80000E-002	1.75720E-004	10	...........
	12885	257.72	7.49703E-002	-1.50672E-005	0.00000E+000	7.50000E-002	1.80307E-004	10	...........
	12892	257.86	8.19812E-002	-1.36476E-005	0.00000E+000	8.20000E-002	1.82559E-004	10	...........
	12899	258	8.89463E-002	-1.32940E-005	0.00000E+000	8.90000E-002	1.72384E-004	10	...........
	12906	258.14	9.59490E-002	-1.23365E-005	0.00000E+000	9.60000E-002	1.81391E-004	10	...........
	12913	258.28	1.02937E-001	-1.19045E-005	0.00000E+000	1.03000E-001	1.83810E-004	10	...........
	12920	258.42	1.09898E-001	-1.06300E-005	0.00000E+000	1.10000E-001	1.73218E-004	10	...........
	12927	258.56	1.17163E-001	-1.00545E-005	0.00000E+000	1.17000E-001	1.82059E-004	10	...........
	12934	258.7	1.23939E-001	-9.19210E-006	0.00000E+000	1.24000E-001	1.79556E-004	10	...........
	12941	258.84	1.30912E-001	-7.87928E-006	0.00000E+000	1.31000E-001	1.79807E-004	10	...........
	12948	258.98	1.37949E-001	-6.99018E-006	0.00000E+000	1.38000E-001	1.73301E-004	10	...........
	12955	259.12	1.44925E-001	-5.26201E-006	0.00000E+000	1.45000E-001	1.82809E-004	10	...........
	12962	259.26	1.51889E-001	-4.43629E-006	0.00000E+000	1.52000E-001	1.72801E-004	10	...........
	12969	259.4	1.58896E-001	-3.02005E-006	0.00000E+000	1.59000E-001	1.85978E-004	10	...........
	12976	259.54	1.65836E-001	-3.13849E-006	0.00000E+000	1.66000E-001	1.76637E-004	10	...........
	12983	259.68	1.73085E-001	-1.81400E-006	0.00000E+000	1.73000E-001	1.65795E-004	10	...........
	12990	259.82	1.79854E-001	-1.78565E-006	0.00000E+000	1.80000E-001	1.84644E-004	10	...........
	12997	259.96	1.86837E-001	-1.09505E-006	0.00000E+000	1.87000E-001	1.79973E-004	10	...........
	13000	260.02	1.89821E-001	-7.68094E-007	0.00000E+000	1.90000E-001	1.76637E-004	10	...........