File: 20191202/CVTESTKRISTALL5BOX4.DTA
EXPLAIN
TAG	CV
TITLE	LABEL	CV	Test &Identifier
DATE	LABEL	12/2/2019	Date
TIME	LABEL	9:40:36	Time
NOTES	NOTES	1	&Notes...

PSTAT	PSTAT	REF600-16093	Potentiostat
VINIT	POTEN	0.00000E+000	T	Initial &E (V)
VLIMIT1	POTEN	8.00000E-001	F	Scan Limit &1 (V)
VLIMIT2	POTEN	-6.00000E-001	F	Scan Limit &2 (V)
VFINAL	POTEN	0.00000E+000	T	Final &E (V)
SCANRATE	QUANT	4.99999E+001	&Scan Rate (mV/s)
STEPSIZE	QUANT	1.00000E+000	St&ep Size (mV)
CYCLES	IQUANT	5	C&ycles (#)
IMODE	SELECTOR	1	I/E Range &Mode
IRANGE	QUANT	1.50000E+001	&Max Current (mA)
AREA	QUANT	1.00000E+000	Electrode &Area (cm^2)
ELECTRODETYPE	SELECTOR	0	Electrode Type
STRIPPING	TOGGLE	F	Used for Stripping
POLARITY	TOGGLE	F	Signal Polarity
CONDIT	TWOPARAM	F	1.50000E+001	0.00000E+000	Conditionin&g	Time(s)	E(V)
DELAY	TWOPARAM	T	5.00000E+000	0.00000E+000	Init. De&lay	Time(s)	Stab.(mV/s)
EQDELAY	QUANT	3.00000E+000	Equil. &Time (s)
IRCOMP	SELECTOR	0	IRCom&p
PFCOR	QUANT	0.00000E+000	PF Corr. (ohm)
SAMPLINGMODE	SELECTOR	2	Sampling &Mode
OCVCURVE	TABLE	20
	Pt	T	Vf	Vm	Ach	Over
	#	s	V vs. Ref.	V	V	bits
	0	0.25	1.61506E-001	1.61506E-001	8.21002E-005	...........
	1	0.5	1.61504E-001	1.61393E-001	8.06002E-005	...........
	2	0.75	1.61493E-001	1.61370E-001	8.33085E-005	...........
	3	1	1.61468E-001	1.61513E-001	8.43918E-005	...........
	4	1.25	1.61444E-001	1.61446E-001	8.14336E-005	...........
	5	1.5	1.61439E-001	1.61540E-001	8.46835E-005	...........
	6	1.75	1.61452E-001	1.61405E-001	7.93502E-005	...........
	7	2	1.61466E-001	1.61493E-001	8.68085E-005	...........
	8	2.25	1.61470E-001	1.61350E-001	8.22669E-005	...........
	9	2.5	1.61458E-001	1.61388E-001	7.75586E-005	...........
	10	2.75	1.61436E-001	1.61467E-001	7.70170E-005	...........
	11	3	1.61418E-001	1.61417E-001	7.71003E-005	...........
	12	3.25	1.61416E-001	1.61494E-001	7.47670E-005	...........
	13	3.5	1.61426E-001	1.61404E-001	7.44753E-005	...........
	14	3.75	1.61438E-001	1.61476E-001	8.08919E-005	...........
	15	4	1.61443E-001	1.61276E-001	7.70586E-005	...........
	16	4.25	1.61431E-001	1.61387E-001	7.81003E-005	...........
	17	4.5	1.61406E-001	1.61398E-001	8.46418E-005	...........
	18	4.75	1.61384E-001	1.61371E-001	8.07669E-005	...........
	19	5	1.61376E-001	1.61431E-001	7.92669E-005	...........
EOC	QUANT	0.1613757	Open Circuit (V)
PSTATMODEL	IQUANT	4	Pstat Model
PSTATSECTION	LABEL	REF600-16093	Pstat Section
PSTATSERIALNO	LABEL	16093	Pstat Serial Number
CTRLMODE	IQUANT	1	Control Mode
IESTAB	IQUANT	2	I/E Stability
CASPEED	IQUANT	2	Control Amp Speed
CONVENTION	IQUANT	1	Current Convention
ICHRANGE	IQUANT	2	Ich Range
ICHRANGEMODE	TOGGLE	F	Ich Auto Range
ICHOFFSETENABLE	TOGGLE	F	Ich Offset Enable
ICHOFFSET	QUANT	0	Ich Offset (V)
ICHFILTER	IQUANT	2	Ich Filter
VCHRANGE	IQUANT	2	Vch Range
VCHRANGEMODE	TOGGLE	F	Vch Auto Range
VCHOFFSETENABLE	TOGGLE	F	Vch Offset Enable
VCHOFFSET	QUANT	0	Vch Offset (V)
VCHFILTER	IQUANT	2	Vch Filter
ACHRANGE	IQUANT	2	Ach Range
ACHOFFSETENABLE	TOGGLE	F	Ach Offset Enable
ACHOFFSET	QUANT	0	Ach Offset (V)
ACHFILTER	IQUANT	1	Ach Filter
IERANGELOWERLIMIT	IQUANT	1	I/E Range Lower Limit
IERANGEMODE	TOGGLE	F	I/E AutoRange
IERANGE	IQUANT	10	I/E Range
POSFEEDENABLE	TOGGLE	F	Positive Feedback IR Comp
POSFEEDRESISTANCE	QUANT	0	Positive Feedback Resistance (ohm)
ACHSELECT	IQUANT	0	Ach Select
CABLEID	IQUANT	14	Cable ID
DCCALDATE	LABEL	11/5/2019	DC Calibration Date
ACCALDATE	LABEL		AC Calibration Date
THERMOSELECT	IQUANT	1	Thermo Select
FRAMEWORKVERSION	QUANT	6.12	Framework Version
INSTRUMENTVERSION	LABEL	3.11	Instrument Version
CURVE1	TABLE
	Pt	T	Vf	Im	Vu	Sig	Ach	IERange	Over
	#	s	V vs. Ref.	A	V	V	V	#	bits
	0	0.02	1.61278E-001	-1.00163E-006	0.00000E+000	1.61400E-001	8.58965E-005	10	...........
	19	0.4	1.80187E-001	4.64646E-007	0.00000E+000	1.80400E-001	8.52293E-005	10	...........
	38	0.78	1.99225E-001	1.10520E-006	0.00000E+000	1.99400E-001	7.86405E-005	10	...........
	57	1.16	2.18155E-001	6.84838E-007	0.00000E+000	2.18400E-001	9.10674E-005	10	...........
	76	1.54	2.37194E-001	1.73909E-006	0.00000E+000	2.37400E-001	8.23936E-005	10	...........
	95	1.92	2.56339E-001	1.73575E-006	0.00000E+000	2.56400E-001	8.35612E-005	10	...........
	114	2.3	2.75200E-001	9.38392E-007	0.00000E+000	2.75400E-001	7.98916E-005	10	...........
	133	2.68	2.94115E-001	2.56314E-006	0.00000E+000	2.94400E-001	8.13094E-005	10	...........
	152	3.06	3.13067E-001	2.25120E-006	0.00000E+000	3.13400E-001	8.07256E-005	10	...........
	171	3.44	3.32125E-001	2.92846E-006	0.00000E+000	3.32400E-001	8.23936E-005	10	...........
	190	3.82	3.51092E-001	5.19543E-006	0.00000E+000	3.51400E-001	7.64721E-005	10	...........
	209	4.2	3.70092E-001	5.98946E-006	0.00000E+000	3.70400E-001	8.52293E-005	10	...........
	228	4.58	3.89165E-001	7.74265E-006	0.00000E+000	3.89400E-001	9.12342E-005	10	...........
	247	4.96	4.08180E-001	8.93535E-006	0.00000E+000	4.08400E-001	8.36446E-005	10	...........
	266	5.34	4.27005E-001	1.01664E-005	0.00000E+000	4.27400E-001	9.13176E-005	10	...........
	285	5.72	4.45978E-001	1.17244E-005	0.00000E+000	4.46400E-001	8.17264E-005	10	...........
	304	6.1	4.64967E-001	1.42617E-005	0.00000E+000	4.65400E-001	8.34778E-005	10	...........
	323	6.48	4.84013E-001	1.57863E-005	0.00000E+000	4.84400E-001	8.11426E-005	10	...........
	342	6.86	5.02976E-001	1.71875E-005	0.00000E+000	5.03400E-001	8.75645E-005	10	...........
	361	7.24	5.21975E-001	1.84353E-005	0.00000E+000	5.22400E-001	8.66471E-005	10	...........
	380	7.62	5.41050E-001	2.01218E-005	0.00000E+000	5.41400E-001	8.50625E-005	10	...........
	399	8	5.59910E-001	2.13912E-005	0.00000E+000	5.60400E-001	8.12260E-005	10	...........
	418	8.38	5.78851E-001	2.05938E-005	0.00000E+000	5.79400E-001	9.05670E-005	10	...........
	437	8.76	5.97858E-001	1.97715E-005	0.00000E+000	5.98400E-001	8.48123E-005	10	...........
	456	9.14	6.16862E-001	1.93628E-005	0.00000E+000	6.17400E-001	8.63135E-005	10	...........
	475	9.52	6.35863E-001	2.00434E-005	0.00000E+000	6.36400E-001	8.35612E-005	10	...........
	494	9.9	6.54808E-001	2.06339E-005	0.00000E+000	6.55400E-001	8.77313E-005	10	...........
	513	10.28	6.73912E-001	1.96764E-005	0.00000E+000	6.74400E-001	7.67223E-005	10	...........
	532	10.66	6.92891E-001	1.88223E-005	0.00000E+000	6.93400E-001	6.98000E-005	10	...........
	551	11.04	7.11781E-001	1.83836E-005	0.00000E+000	7.12400E-001	8.22268E-005	10	...........
	570	11.42	7.30674E-001	1.78831E-005	0.00000E+000	7.31400E-001	8.10592E-005	10	...........
	589	11.8	7.49729E-001	2.03353E-005	0.00000E+000	7.50400E-001	8.05588E-005	10	...........
	608	12.18	7.68721E-001	1.94862E-005	0.00000E+000	7.69400E-001	8.21434E-005	10	...........
	627	12.56	7.87732E-001	1.83202E-005	0.00000E+000	7.88400E-001	8.83151E-005	10	...........
	646	12.94	7.92760E-001	9.71270E-006	0.00000E+000	7.93400E-001	7.91409E-005	10	...........
	665	13.32	7.73750E-001	2.51977E-006	0.00000E+000	7.74400E-001	8.89823E-005	10	...........
	684	13.7	7.54734E-001	7.56567E-007	0.00000E+000	7.55400E-001	8.43953E-005	10	...........
	703	14.08	7.35772E-001	1.81066E-007	0.00000E+000	7.36400E-001	8.28940E-005	10	...........
	722	14.46	7.16824E-001	-2.37950E-006	0.00000E+000	7.17400E-001	7.83903E-005	10	...........
	741	14.84	6.97914E-001	-3.35868E-006	0.00000E+000	6.98400E-001	8.37280E-005	10	...........
	760	15.22	6.78816E-001	-3.61557E-006	0.00000E+000	6.79400E-001	7.98082E-005	10	...........
	779	15.6	6.59828E-001	-2.84824E-006	0.00000E+000	6.60400E-001	8.25604E-005	10	...........
	798	15.98	6.40819E-001	-3.40039E-006	0.00000E+000	6.41400E-001	8.23102E-005	10	...........
	817	16.36	6.21849E-001	-3.03674E-006	0.00000E+000	6.22400E-001	7.66389E-005	10	...........
	836	16.74	6.02821E-001	-4.19107E-006	0.00000E+000	6.03400E-001	8.88155E-005	10	...........
	855	17.12	5.83959E-001	-3.71066E-006	0.00000E+000	5.84400E-001	8.25604E-005	10	...........
	874	17.5	5.65095E-001	-3.03340E-006	0.00000E+000	5.65400E-001	7.55547E-005	10	...........
	893	17.88	5.45989E-001	-2.72813E-006	0.00000E+000	5.46400E-001	8.23102E-005	10	...........
	912	18.26	5.26962E-001	-4.23111E-006	0.00000E+000	5.27400E-001	7.80567E-005	10	...........
	931	18.64	5.08004E-001	-4.87167E-006	0.00000E+000	5.08400E-001	7.73061E-005	10	...........
	950	19.02	4.88976E-001	-5.19528E-006	0.00000E+000	4.89400E-001	8.65637E-005	10	...........
	969	19.4	4.69978E-001	-4.87333E-006	0.00000E+000	4.70400E-001	8.30608E-005	10	...........
	988	19.78	4.50979E-001	-4.88668E-006	0.00000E+000	4.51400E-001	8.15596E-005	10	...........
	1007	20.16	4.32178E-001	-5.79581E-006	0.00000E+000	4.32400E-001	7.83069E-005	10	...........
	1026	20.54	4.13175E-001	-7.92099E-006	0.00000E+000	4.13400E-001	7.98916E-005	10	...........
	1045	20.92	3.94084E-001	-7.85593E-006	0.00000E+000	3.94400E-001	8.67305E-005	10	...........
	1064	21.3	3.75112E-001	-7.58570E-006	0.00000E+000	3.75400E-001	7.66389E-005	10	...........
	1083	21.68	3.56137E-001	-7.55067E-006	0.00000E+000	3.56400E-001	8.17264E-005	10	...........
	1102	22.06	3.37033E-001	-8.84513E-006	0.00000E+000	3.37400E-001	7.71393E-005	10	...........
	1121	22.44	3.18110E-001	-9.35557E-006	0.00000E+000	3.18400E-001	8.48957E-005	10	...........
	1140	22.82	2.99137E-001	-1.13240E-005	0.00000E+000	2.99400E-001	7.78899E-005	10	...........
	1159	23.2	2.80345E-001	-1.25901E-005	0.00000E+000	2.80400E-001	7.97248E-005	10	...........
	1178	23.58	2.61230E-001	-1.24299E-005	0.00000E+000	2.61400E-001	7.86405E-005	10	...........
	1197	23.96	2.42188E-001	-1.48587E-005	0.00000E+000	2.42400E-001	8.38114E-005	10	...........
	1216	24.34	2.23207E-001	-1.65852E-005	0.00000E+000	2.23400E-001	7.84737E-005	10	...........
	1235	24.72	2.04202E-001	-1.79464E-005	0.00000E+000	2.04400E-001	8.36446E-005	10	...........
	1254	25.1	1.85226E-001	-2.06371E-005	0.00000E+000	1.85400E-001	8.08090E-005	10	...........
	1273	25.48	1.66283E-001	-2.14895E-005	0.00000E+000	1.66400E-001	8.41450E-005	10	...........
	1292	25.86	1.47411E-001	-2.55647E-005	0.00000E+000	1.47400E-001	7.65555E-005	10	...........
	1311	26.24	1.28393E-001	-2.85256E-005	0.00000E+000	1.28400E-001	8.17264E-005	10	...........
	1330	26.62	1.09315E-001	-3.18552E-005	0.00000E+000	1.09400E-001	8.68139E-005	10	...........
	1349	27	9.02972E-002	-3.76952E-005	0.00000E+000	9.04000E-002	8.80649E-005	10	...........
	1368	27.38	7.13560E-002	-4.24027E-005	0.00000E+000	7.14000E-002	8.25604E-005	10	...........
	1387	27.76	5.22820E-002	-5.11603E-005	0.00000E+000	5.24000E-002	9.00666E-005	10	...........
	1406	28.14	3.33713E-002	-6.26436E-005	0.00000E+000	3.34000E-002	9.39864E-005	10	...........
	1425	28.52	1.46688E-002	-7.82806E-005	0.00000E+000	1.44000E-002	7.95580E-005	10	...........
	1444	28.9	-4.40696E-003	-1.00715E-004	0.00000E+000	-4.60000E-003	7.47207E-005	10	...........
	1463	29.28	-2.35168E-002	-1.28558E-004	0.00000E+000	-2.36000E-002	8.45620E-005	10	...........
	1482	29.66	-4.24832E-002	-1.59982E-004	0.00000E+000	-4.26000E-002	7.66389E-005	10	...........
	1501	30.04	-6.14884E-002	-1.87285E-004	0.00000E+000	-6.16000E-002	8.63969E-005	10	...........
	1520	30.42	-8.05311E-002	-1.98205E-004	0.00000E+000	-8.06000E-002	8.33944E-005	10	...........
	1539	30.8	-9.94916E-002	-1.96170E-004	0.00000E+000	-9.96000E-002	9.16512E-005	10	...........
	1558	31.18	-1.18471E-001	-1.86994E-004	0.00000E+000	-1.18600E-001	8.13928E-005	10	...........
	1577	31.56	-1.37232E-001	-1.74371E-004	0.00000E+000	-1.37600E-001	8.34778E-005	10	...........
	1596	31.94	-1.56390E-001	-1.60154E-004	0.00000E+000	-1.56600E-001	8.19766E-005	10	...........
	1615	32.32	-1.75415E-001	-1.45341E-004	0.00000E+000	-1.75600E-001	9.11508E-005	10	...........
	1634	32.7	-1.94414E-001	-1.37524E-004	0.00000E+000	-1.94600E-001	7.79733E-005	10	...........
	1653	33.08	-2.13392E-001	-1.35212E-004	0.00000E+000	-2.13600E-001	7.93912E-005	10	...........
	1672	33.46	-2.32361E-001	-1.37891E-004	0.00000E+000	-2.32600E-001	8.38948E-005	10	...........
	1691	33.84	-2.51369E-001	-1.46855E-004	0.00000E+000	-2.51600E-001	8.16430E-005	10	...........
	1710	34.22	-2.70353E-001	-1.57419E-004	0.00000E+000	-2.70600E-001	8.18098E-005	10	...........
	1729	34.6	-2.89205E-001	-1.75592E-004	0.00000E+000	-2.89600E-001	9.05670E-005	10	...........
	1748	34.98	-3.08271E-001	-1.98579E-004	0.00000E+000	-3.08600E-001	8.60633E-005	10	...........
	1767	35.36	-3.27270E-001	-2.26385E-004	0.00000E+000	-3.27600E-001	7.80567E-005	10	...........
	1786	35.74	-3.46277E-001	-2.69570E-004	0.00000E+000	-3.46600E-001	8.61467E-005	10	...........
	1805	36.12	-3.65319E-001	-3.24280E-004	0.00000E+000	-3.65600E-001	8.60633E-005	10	...........
	1824	36.5	-3.84238E-001	-3.92252E-004	0.00000E+000	-3.84600E-001	8.92325E-005	10	...........
	1843	36.88	-4.03263E-001	-4.53419E-004	0.00000E+000	-4.03600E-001	7.80567E-005	10	...........
	1862	37.26	-4.22190E-001	-4.25773E-004	0.00000E+000	-4.22600E-001	8.99832E-005	10	...........
	1881	37.64	-4.41145E-001	-3.34172E-004	0.00000E+000	-4.41600E-001	8.06422E-005	10	...........
	1900	38.02	-4.60169E-001	-2.48477E-004	0.00000E+000	-4.60600E-001	8.13928E-005	10	...........
	1919	38.4	-4.79136E-001	-2.04159E-004	0.00000E+000	-4.79600E-001	8.03086E-005	10	...........
	1938	38.78	-4.98194E-001	-1.92158E-004	0.00000E+000	-4.98600E-001	8.07256E-005	10	...........
	1957	39.16	-5.17136E-001	-1.81165E-004	0.00000E+000	-5.17600E-001	8.45620E-005	10	...........
	1976	39.54	-5.36131E-001	-1.72466E-004	0.00000E+000	-5.36600E-001	8.98163E-005	10	...........
	1995	39.92	-5.55070E-001	-1.62874E-004	0.00000E+000	-5.55600E-001	8.67305E-005	10	...........
	2014	40.3	-5.74001E-001	-1.56931E-004	0.00000E+000	-5.74600E-001	8.63135E-005	10	...........
	2033	40.68	-5.93041E-001	-1.57888E-004	0.00000E+000	-5.93600E-001	8.38114E-005	10	...........
	2039	40.8	-5.99056E-001	-1.60302E-004	0.00000E+000	-5.99600E-001	8.75645E-005	10	...........
CURVE2	TABLE
	Pt	T	Vf	Im	Vu	Sig	Ach	IERange	Over
	#	s	V vs. Ref.	A	V	V	V	#	bits
	2040	40.82	-5.98453E-001	-1.31449E-004	0.00000E+000	-5.99000E-001	8.33110E-005	10	...........
	2067	41.36	-5.71544E-001	-5.51321E-005	0.00000E+000	-5.72000E-001	8.33944E-005	10	...........
	2094	41.9	-5.44581E-001	-4.31500E-005	0.00000E+000	-5.45000E-001	7.71393E-005	10	...........
	2121	42.44	-5.17517E-001	-3.70230E-005	0.00000E+000	-5.18000E-001	8.16430E-005	10	...........
	2148	42.98	-4.90526E-001	-2.85656E-005	0.00000E+000	-4.91000E-001	8.74811E-005	10	...........
	2175	43.52	-4.63569E-001	-3.16867E-005	0.00000E+000	-4.64000E-001	8.30608E-005	10	...........
	2202	44.06	-4.36443E-001	-2.79501E-005	0.00000E+000	-4.37000E-001	8.43118E-005	10	...........
	2229	44.6	-4.09539E-001	-2.96299E-005	0.00000E+000	-4.10000E-001	7.17182E-005	10	...........
	2256	45.14	-3.82652E-001	-3.16466E-005	0.00000E+000	-3.83000E-001	8.73143E-005	10	...........
	2283	45.68	-3.55726E-001	-3.08626E-005	0.00000E+000	-3.56000E-001	8.62301E-005	10	...........
	2310	46.22	-3.28682E-001	-3.17551E-005	0.00000E+000	-3.29000E-001	8.68139E-005	10	...........
	2337	46.76	-3.01734E-001	-3.14281E-005	0.00000E+000	-3.02000E-001	7.93912E-005	10	...........
	2364	47.3	-2.74745E-001	-2.99935E-005	0.00000E+000	-2.75000E-001	8.38948E-005	10	...........
	2391	47.84	-2.47676E-001	-3.07876E-005	0.00000E+000	-2.48000E-001	8.65637E-005	10	...........
	2418	48.38	-2.20789E-001	-2.88025E-005	0.00000E+000	-2.21000E-001	8.26438E-005	10	...........
	2445	48.92	-1.93870E-001	-2.79835E-005	0.00000E+000	-1.94000E-001	8.36446E-005	10	...........
	2472	49.46	-1.66893E-001	-2.69609E-005	0.00000E+000	-1.67000E-001	8.16430E-005	10	...........
	2499	50	-1.39892E-001	-2.53862E-005	0.00000E+000	-1.40000E-001	8.12260E-005	10	...........
	2526	50.54	-1.12877E-001	-2.43319E-005	0.00000E+000	-1.13000E-001	8.70641E-005	10	...........
	2553	51.08	-8.58798E-002	-2.35613E-005	0.00000E+000	-8.60000E-002	8.32276E-005	10	...........
	2580	51.62	-5.88791E-002	-2.07088E-005	0.00000E+000	-5.90000E-002	8.95661E-005	10	...........
	2607	52.16	-3.18078E-002	-2.02384E-005	0.00000E+000	-3.20000E-002	8.05588E-005	10	...........
	2634	52.7	-4.93748E-003	-1.66819E-005	0.00000E+000	-5.00000E-003	8.55629E-005	10	...........
	2661	53.24	2.19150E-002	-1.50322E-005	0.00000E+000	2.20000E-002	8.88989E-005	10	...........
	2688	53.78	4.89476E-002	-1.28670E-005	0.00000E+000	4.90000E-002	7.82235E-005	10	...........
	2715	54.32	7.59567E-002	-9.01861E-006	0.00000E+000	7.60000E-002	8.12260E-005	10	...........
	2742	54.86	1.02885E-001	-5.38878E-006	0.00000E+000	1.03000E-001	7.98082E-005	10	...........
	2769	55.4	1.29976E-001	-2.85491E-006	0.00000E+000	1.30000E-001	8.40616E-005	10	...........
	2796	55.94	1.56936E-001	5.91319E-009	0.00000E+000	1.57000E-001	8.13094E-005	10	...........
	2823	56.48	1.83807E-001	4.58490E-006	0.00000E+000	1.84000E-001	9.31524E-005	10	...........
	2850	57.02	2.10756E-001	6.52993E-006	0.00000E+000	2.11000E-001	9.13176E-005	10	...........
	2877	57.56	2.37762E-001	9.49751E-006	0.00000E+000	2.38000E-001	9.10674E-005	10	...........
	2904	58.1	2.64764E-001	1.27670E-005	0.00000E+000	2.65000E-001	8.11426E-005	10	...........
	2931	58.64	2.91746E-001	1.69006E-005	0.00000E+000	2.92000E-001	9.34026E-005	10	...........
	2958	59.18	3.18760E-001	2.06322E-005	0.00000E+000	3.19000E-001	8.13928E-005	10	...........
	2985	59.72	3.45702E-001	2.61287E-005	0.00000E+000	3.46000E-001	8.15596E-005	10	...........
	3012	60.26	3.72773E-001	3.52383E-005	0.00000E+000	3.73000E-001	8.89823E-005	10	...........
	3039	60.8	3.99579E-001	5.52257E-005	0.00000E+000	4.00000E-001	8.48957E-005	10	...........
[...]
	13296	265.94	-5.42504E-001	-2.20883E-005	0.00000E+000	-5.43000E-001	7.03004E-005	10	...........
	13304	266.1	-5.34555E-001	-1.90590E-005	0.00000E+000	-5.35000E-001	8.63135E-005	10	...........
	13312	266.26	-5.26592E-001	-1.21997E-005	0.00000E+000	-5.27000E-001	8.64803E-005	10	...........
	13320	266.42	-5.18562E-001	-1.30371E-005	0.00000E+000	-5.19000E-001	8.25604E-005	10	...........
	13328	266.58	-5.10585E-001	-1.72408E-005	0.00000E+000	-5.11000E-001	8.23936E-005	10	...........
	13336	266.74	-5.02592E-001	-1.99765E-005	0.00000E+000	-5.03000E-001	8.59799E-005	10	...........
	13344	266.9	-4.94572E-001	-2.01433E-005	0.00000E+000	-4.95000E-001	9.06504E-005	10	...........
	13352	267.06	-4.86565E-001	-1.91358E-005	0.00000E+000	-4.87000E-001	8.38114E-005	10	...........
	13360	267.22	-4.78600E-001	-1.16075E-005	0.00000E+000	-4.79000E-001	8.29774E-005	10	...........
	13368	267.38	-4.70609E-001	-1.82516E-005	0.00000E+000	-4.71000E-001	8.91491E-005	10	...........
	13376	267.54	-4.62592E-001	-2.16963E-005	0.00000E+000	-4.63000E-001	8.63135E-005	10	...........
	13384	267.7	-4.54602E-001	-2.12893E-005	0.00000E+000	-4.55000E-001	8.80649E-005	10	...........
	13392	267.86	-4.46620E-001	-2.31009E-005	0.00000E+000	-4.47000E-001	8.51459E-005	10	...........
	13400	268.02	-4.38603E-001	-1.55893E-005	0.00000E+000	-4.39000E-001	9.04836E-005	10	...........
	13408	268.18	-4.30624E-001	-2.07238E-005	0.00000E+000	-4.31000E-001	8.37280E-005	10	...........
	13416	268.34	-4.22613E-001	-2.22268E-005	0.00000E+000	-4.23000E-001	8.28940E-005	10	...........
	13424	268.5	-4.14605E-001	-2.40951E-005	0.00000E+000	-4.15000E-001	8.80649E-005	10	...........
	13432	268.66	-4.06669E-001	-2.45705E-005	0.00000E+000	-4.07000E-001	8.84819E-005	10	...........
	13440	268.82	-3.98702E-001	-2.35262E-005	0.00000E+000	-3.99000E-001	8.78981E-005	10	...........
	13448	268.98	-3.90671E-001	-2.30825E-005	0.00000E+000	-3.91000E-001	8.97329E-005	10	...........
	13456	269.14	-3.82696E-001	-2.64771E-005	0.00000E+000	-3.83000E-001	9.01500E-005	10	...........
	13464	269.3	-3.74702E-001	-2.80218E-005	0.00000E+000	-3.75000E-001	8.34778E-005	10	...........
	13472	269.46	-3.66710E-001	-2.82020E-005	0.00000E+000	-3.67000E-001	8.51459E-005	10	...........
	13480	269.62	-3.58677E-001	-2.72128E-005	0.00000E+000	-3.59000E-001	8.98163E-005	10	...........
	13488	269.78	-3.50689E-001	-2.59283E-005	0.00000E+000	-3.51000E-001	9.36528E-005	10	...........
	13496	269.94	-3.42715E-001	-2.76048E-005	0.00000E+000	-3.43000E-001	8.57297E-005	10	...........
	13504	270.1	-3.34687E-001	-2.81336E-005	0.00000E+000	-3.35000E-001	8.45620E-005	10	...........
	13512	270.26	-3.26725E-001	-2.96065E-005	0.00000E+000	-3.27000E-001	8.67305E-005	10	...........
	13520	270.42	-3.18777E-001	-2.92679E-005	0.00000E+000	-3.19000E-001	8.40616E-005	10	...........
	13528	270.58	-3.10736E-001	-2.84055E-005	0.00000E+000	-3.11000E-001	8.74811E-005	10	...........
	13536	270.74	-3.02731E-001	-2.88809E-005	0.00000E+000	-3.03000E-001	8.75645E-005	10	...........
	13544	270.9	-2.94791E-001	-2.95598E-005	0.00000E+000	-2.95000E-001	9.12342E-005	10	...........
	13552	271.06	-2.86765E-001	-2.88092E-005	0.00000E+000	-2.87000E-001	8.45620E-005	10	...........
	13560	271.22	-2.78791E-001	-2.90377E-005	0.00000E+000	-2.79000E-001	7.68891E-005	10	...........
	13568	271.38	-2.70798E-001	-2.83221E-005	0.00000E+000	-2.71000E-001	8.52293E-005	10	...........
	13576	271.54	-2.62812E-001	-2.73295E-005	0.00000E+000	-2.63000E-001	8.73143E-005	10	...........
	13584	271.7	-2.54805E-001	-2.88676E-005	0.00000E+000	-2.55000E-001	9.13176E-005	10	...........
	13592	271.86	-2.46812E-001	-2.84572E-005	0.00000E+000	-2.47000E-001	8.00584E-005	10	...........
	13600	272.02	-2.38845E-001	-2.86941E-005	0.00000E+000	-2.39000E-001	8.18098E-005	10	...........
	13608	272.18	-2.30785E-001	-2.78767E-005	0.00000E+000	-2.31000E-001	8.38114E-005	10	...........
	13616	272.34	-2.22820E-001	-2.75331E-005	0.00000E+000	-2.23000E-001	8.26438E-005	10	...........
	13624	272.5	-2.14858E-001	-2.80685E-005	0.00000E+000	-2.15000E-001	7.63053E-005	10	...........
	13632	272.66	-2.06828E-001	-2.75798E-005	0.00000E+000	-2.07000E-001	8.18098E-005	10	...........
	13640	272.82	-1.98855E-001	-2.76682E-005	0.00000E+000	-1.99000E-001	8.41450E-005	10	...........
	13648	272.98	-1.90909E-001	-2.78150E-005	0.00000E+000	-1.91000E-001	7.98082E-005	10	...........
	13656	273.14	-1.82879E-001	-2.68808E-005	0.00000E+000	-1.83000E-001	7.74729E-005	10	...........
	13664	273.3	-1.74854E-001	-2.69209E-005	0.00000E+000	-1.75000E-001	8.73143E-005	10	...........
	13672	273.46	-1.66895E-001	-2.67607E-005	0.00000E+000	-1.67000E-001	8.61467E-005	10	...........
	13680	273.62	-1.58912E-001	-2.64755E-005	0.00000E+000	-1.59000E-001	8.78981E-005	10	...........
	13688	273.78	-1.50888E-001	-2.64221E-005	0.00000E+000	-1.51000E-001	7.73061E-005	10	...........
	13696	273.94	-1.42881E-001	-2.52344E-005	0.00000E+000	-1.43000E-001	8.43118E-005	10	...........
	13704	274.1	-1.34912E-001	-2.41551E-005	0.00000E+000	-1.35000E-001	8.63135E-005	10	...........
	13712	274.26	-1.26940E-001	-2.56281E-005	0.00000E+000	-1.27000E-001	9.41532E-005	10	...........
	13720	274.42	-1.18908E-001	-2.51310E-005	0.00000E+000	-1.19000E-001	8.52293E-005	10	...........
	13728	274.58	-1.10947E-001	-2.42335E-005	0.00000E+000	-1.11000E-001	8.21434E-005	10	...........
	13736	274.74	-1.02926E-001	-2.46322E-005	0.00000E+000	-1.03000E-001	8.18098E-005	10	...........
	13744	274.9	-9.49393E-002	-2.34362E-005	0.00000E+000	-9.50000E-002	8.69807E-005	10	...........
	13752	275.06	-8.69792E-002	-2.40934E-005	0.00000E+000	-8.70000E-002	8.02252E-005	10	...........
	13760	275.22	-7.89665E-002	-2.32593E-005	0.00000E+000	-7.90000E-002	8.44786E-005	10	...........
	13768	275.38	-7.09551E-002	-2.29908E-005	0.00000E+000	-7.10000E-002	8.14762E-005	10	...........
	13776	275.54	-6.29825E-002	-2.28256E-005	0.00000E+000	-6.30000E-002	8.13094E-005	10	...........
	13784	275.7	-5.49814E-002	-2.14094E-005	0.00000E+000	-5.50000E-002	8.58131E-005	10	...........
	13792	275.86	-4.69659E-002	-2.16263E-005	0.00000E+000	-4.70000E-002	8.29774E-005	10	...........
	13800	276.02	-3.89673E-002	-2.15162E-005	0.00000E+000	-3.90000E-002	7.93078E-005	10	...........
	13808	276.18	-3.09830E-002	-2.04169E-005	0.00000E+000	-3.10000E-002	8.05588E-005	10	...........
	13816	276.34	-2.29851E-002	-2.05386E-005	0.00000E+000	-2.30000E-002	8.54795E-005	10	...........
	13824	276.5	-1.49714E-002	-1.87688E-005	0.00000E+000	-1.50000E-002	8.80649E-005	10	...........
	13832	276.66	-7.01009E-003	-1.80381E-005	0.00000E+000	-7.00000E-003	8.67305E-005	10	...........
	13840	276.82	9.37076E-004	-1.87137E-005	0.00000E+000	1.00000E-003	8.77313E-005	10	...........
	13848	276.98	8.93704E-003	-1.78096E-005	0.00000E+000	9.00000E-003	8.50625E-005	10	...........
	13856	277.14	1.69531E-002	-1.68454E-005	0.00000E+000	1.70000E-002	8.17264E-005	10	...........
	13864	277.3	2.49561E-002	-1.67103E-005	0.00000E+000	2.50000E-002	7.85571E-005	10	...........
	13872	277.46	3.29564E-002	-1.51957E-005	0.00000E+000	3.30000E-002	8.12260E-005	10	...........
	13880	277.62	4.09290E-002	-1.55493E-005	0.00000E+000	4.10000E-002	7.92243E-005	10	...........
	13888	277.78	4.89401E-002	-1.45251E-005	0.00000E+000	4.90000E-002	8.60633E-005	10	...........
	13896	277.94	5.69587E-002	-1.35175E-005	0.00000E+000	5.70000E-002	8.12260E-005	10	...........
	13904	278.1	6.48764E-002	-1.33324E-005	0.00000E+000	6.50000E-002	8.46455E-005	10	...........
	13912	278.26	7.29350E-002	-1.24416E-005	0.00000E+000	7.30000E-002	8.33944E-005	10	...........
	13920	278.42	8.09291E-002	-1.12155E-005	0.00000E+000	8.10000E-002	8.31442E-005	10	...........
	13928	278.58	8.89085E-002	-1.08769E-005	0.00000E+000	8.90000E-002	8.65637E-005	10	...........
	13936	278.74	9.69002E-002	-9.60245E-006	0.00000E+000	9.70000E-002	8.62301E-005	10	...........
	13944	278.9	1.04882E-001	-8.50817E-006	0.00000E+000	1.05000E-001	8.46455E-005	10	...........
	13952	279.06	1.12900E-001	-6.93346E-006	0.00000E+000	1.13000E-001	8.76479E-005	10	...........
	13960	279.22	1.20870E-001	-5.50055E-006	0.00000E+000	1.21000E-001	8.04754E-005	10	...........
	13968	279.38	1.28839E-001	-5.47719E-006	0.00000E+000	1.29000E-001	8.58965E-005	10	...........
	13976	279.54	1.36857E-001	-4.24612E-006	0.00000E+000	1.37000E-001	7.94746E-005	10	...........
	13984	279.7	1.44840E-001	-3.21522E-006	0.00000E+000	1.45000E-001	8.07256E-005	10	...........
	13992	279.86	1.52851E-001	-1.81901E-006	0.00000E+000	1.53000E-001	7.72227E-005	10	...........
	14000	280.02	1.60845E-001	-3.21038E-007	0.00000E+000	1.61000E-001	8.28106E-005	10	...........