File: 20190222 HUPD/CV_test_2.DTA
EXPLAIN
TAG	CV
TITLE	LABEL	CV	Test &Identifier
DATE	LABEL	2/22/2019	Date
TIME	LABEL	10:57:34	Time
NOTES	NOTES	2	&Notes...
	0.5 M H2SO4
	Pt-wire CE
PSTAT	PSTAT	REF600-16093	Potentiostat
VINIT	POTEN	0.00000E+000	T	Initial &E (V)
VLIMIT1	POTEN	9.00000E-001	F	Scan Limit &1 (V)
VLIMIT2	POTEN	-6.95000E-001	F	Scan Limit &2 (V)
VFINAL	POTEN	0.00000E+000	T	Final &E (V)
SCANRATE	QUANT	2.00000E+002	&Scan Rate (mV/s)
STEPSIZE	QUANT	1.00000E+001	St&ep Size (mV)
CYCLES	IQUANT	10	C&ycles (#)
IMODE	SELECTOR	1	I/E Range &Mode
IRANGE	QUANT	1.00000E+001	&Max Current (mA)
AREA	QUANT	1.00000E+000	Electrode &Area (cm^2)
ELECTRODETYPE	SELECTOR	0	Electrode Type
STRIPPING	TOGGLE	F	Used for Stripping
POLARITY	TOGGLE	F	Signal Polarity
CONDIT	TWOPARAM	F	1.50000E+001	0.00000E+000	Conditionin&g	Time(s)	E(V)
DELAY	TWOPARAM	T	5.00000E+000	0.00000E+000	Init. De&lay	Time(s)	Stab.(mV/s)
EQDELAY	QUANT	5.00000E+000	Equil. &Time (s)
IRCOMP	SELECTOR	0	IRCom&p
PFCOR	QUANT	0.00000E+000	PF Corr. (ohm)
SAMPLINGMODE	SELECTOR	2	Sampling &Mode
OCVCURVE	TABLE	20
	Pt	T	Vf	Vm	Ach	Over
	#	s	V vs. Ref.	V	V	bits
	0	0.25	-3.70547E-001	-3.70547E-001	6.70596E-005	...........
	1	0.5	-3.70546E-001	-3.70528E-001	6.37263E-005	...........
	2	0.75	-3.70544E-001	-3.70503E-001	6.62596E-005	...........
	3	1	-3.70537E-001	-3.70462E-001	6.08930E-005	...........
	4	1.25	-3.70522E-001	-3.70442E-001	6.53597E-005	...........
	5	1.5	-3.70498E-001	-3.70384E-001	6.19597E-005	...........
	6	1.75	-3.70468E-001	-3.70344E-001	6.15597E-005	...........
	7	2	-3.70432E-001	-3.70276E-001	6.40263E-005	...........
	8	2.25	-3.70388E-001	-3.70234E-001	6.52263E-005	...........
	9	2.5	-3.70340E-001	-3.70208E-001	6.05931E-005	...........
	10	2.75	-3.70292E-001	-3.70192E-001	6.50263E-005	...........
	11	3	-3.70250E-001	-3.70171E-001	6.82929E-005	...........
	12	3.25	-3.70218E-001	-3.70162E-001	6.51597E-005	...........
	13	3.5	-3.70194E-001	-3.70143E-001	6.50597E-005	...........
	14	3.75	-3.70175E-001	-3.70121E-001	6.12264E-005	...........
	15	4	-3.70158E-001	-3.70081E-001	6.08264E-005	...........
	16	4.25	-3.70138E-001	-3.70009E-001	5.85931E-005	...........
	17	4.5	-3.70109E-001	-3.69925E-001	5.33932E-005	...........
	18	4.75	-3.70064E-001	-3.69821E-001	5.47598E-005	...........
	19	5	-3.70000E-001	-3.69678E-001	5.38265E-005	...........
EOC	QUANT	-0.3699999	Open Circuit (V)
PSTATMODEL	IQUANT	4	Pstat Model
PSTATSECTION	LABEL	REF600-16093	Pstat Section
PSTATSERIALNO	LABEL	16093	Pstat Serial Number
CTRLMODE	IQUANT	1	Control Mode
IESTAB	IQUANT	2	I/E Stability
CASPEED	IQUANT	2	Control Amp Speed
CONVENTION	IQUANT	1	Current Convention
ICHRANGE	IQUANT	2	Ich Range
ICHRANGEMODE	TOGGLE	F	Ich Auto Range
ICHOFFSETENABLE	TOGGLE	F	Ich Offset Enable
ICHOFFSET	QUANT	0	Ich Offset (V)
ICHFILTER	IQUANT	2	Ich Filter
VCHRANGE	IQUANT	2	Vch Range
VCHRANGEMODE	TOGGLE	F	Vch Auto Range
VCHOFFSETENABLE	TOGGLE	F	Vch Offset Enable
VCHOFFSET	QUANT	0	Vch Offset (V)
VCHFILTER	IQUANT	2	Vch Filter
ACHRANGE	IQUANT	2	Ach Range
ACHOFFSETENABLE	TOGGLE	F	Ach Offset Enable
ACHOFFSET	QUANT	0	Ach Offset (V)
ACHFILTER	IQUANT	1	Ach Filter
IERANGELOWERLIMIT	IQUANT	1	I/E Range Lower Limit
IERANGEMODE	TOGGLE	F	I/E AutoRange
IERANGE	IQUANT	10	I/E Range
POSFEEDENABLE	TOGGLE	F	Positive Feedback IR Comp
POSFEEDRESISTANCE	QUANT	0	Positive Feedback Resistance (ohm)
ACHSELECT	IQUANT	0	Ach Select
CABLEID	IQUANT	14	Cable ID
DCCALDATE	LABEL	2/18/2019	DC Calibration Date
ACCALDATE	LABEL	2/18/2019	AC Calibration Date
THERMOSELECT	IQUANT	1	Thermo Select
FRAMEWORKVERSION	QUANT	6.33	Framework Version
INSTRUMENTVERSION	LABEL	3.50	Instrument Version
CURVE1	TABLE
	Pt	T	Vf	Im	Vu	Sig	Ach	IERange	Over
	#	s	V vs. Ref.	A	V	V	V	#	bits
	0	0.05	-3.69538E-001	-2.94065E-006	0.00000E+000	-3.70000E-001	6.96260E-005	10	...........
	3	0.2	-3.39676E-001	7.50703E-005	0.00000E+000	-3.40000E-001	6.58915E-005	10	...........
	6	0.35	-3.09752E-001	7.82748E-005	0.00000E+000	-3.10000E-001	7.20935E-005	10	...........
	9	0.5	-2.79661E-001	9.47282E-005	0.00000E+000	-2.80000E-001	7.12932E-005	10	...........
	12	0.65	-2.49599E-001	1.28724E-004	0.00000E+000	-2.50000E-001	6.60582E-005	10	...........
	15	0.8	-2.19791E-001	1.80170E-004	0.00000E+000	-2.20000E-001	7.48943E-005	10	...........
	18	0.95	-1.89767E-001	2.54257E-004	0.00000E+000	-1.90000E-001	7.68950E-005	10	...........
	21	1.1	-1.59753E-001	3.40632E-004	0.00000E+000	-1.60000E-001	7.89623E-005	10	...........
	24	1.25	-1.29657E-001	4.26167E-004	0.00000E+000	-1.30000E-001	6.85257E-005	10	...........
	27	1.4	-9.98787E-002	4.86977E-004	0.00000E+000	-1.00000E-001	7.74618E-005	10	...........
	30	1.55	-6.98491E-002	5.11239E-004	0.00000E+000	-7.00000E-002	7.15933E-005	10	...........
	33	1.7	-3.98774E-002	4.95507E-004	0.00000E+000	-4.00000E-002	7.41941E-005	10	...........
	36	1.85	-9.76332E-003	4.58675E-004	0.00000E+000	-9.99999E-003	6.54247E-005	10	...........
	39	2	1.98450E-002	4.18395E-004	0.00000E+000	2.00000E-002	7.42608E-005	10	...........
	42	2.15	5.00365E-002	3.91650E-004	0.00000E+000	5.00000E-002	6.75587E-005	10	...........
	45	2.3	8.00458E-002	3.85181E-004	0.00000E+000	8.00000E-002	6.99594E-005	10	...........
	48	2.45	1.09960E-001	4.05359E-004	0.00000E+000	1.10000E-001	6.97594E-005	10	...........
	51	2.6	1.39866E-001	4.51939E-004	0.00000E+000	1.40000E-001	7.17600E-005	10	...........
	54	2.75	1.69961E-001	5.26187E-004	0.00000E+000	1.70000E-001	6.70252E-005	10	...........
	57	2.9	2.00036E-001	6.22293E-004	0.00000E+000	2.00000E-001	6.86924E-005	10	...........
	60	3.05	2.29730E-001	7.42982E-004	0.00000E+000	2.30000E-001	7.42275E-005	10	...........
	63	3.2	2.59828E-001	8.80117E-004	0.00000E+000	2.60000E-001	7.48943E-005	10	...........
	66	3.35	2.89841E-001	1.03047E-003	0.00000E+000	2.90000E-001	7.53945E-005	10	...........
	69	3.5	3.19810E-001	1.16711E-003	0.00000E+000	3.20000E-001	7.24936E-005	10	...........
	72	3.65	3.49445E-001	1.28982E-003	0.00000E+000	3.50000E-001	7.26936E-005	10	...........
	75	3.8	3.79787E-001	1.38759E-003	0.00000E+000	3.80000E-001	7.21601E-005	10	...........
	78	3.95	4.09720E-001	1.46375E-003	0.00000E+000	4.10000E-001	7.23269E-005	10	...........
	81	4.1	4.39714E-001	1.50543E-003	0.00000E+000	4.40000E-001	7.24936E-005	10	...........
	84	4.25	4.69637E-001	1.53185E-003	0.00000E+000	4.70000E-001	7.26936E-005	10	...........
	87	4.4	4.99643E-001	1.55772E-003	0.00000E+000	5.00000E-001	6.51913E-005	10	...........
	90	4.55	5.29656E-001	1.59789E-003	0.00000E+000	5.30000E-001	7.41608E-005	10	...........
	93	4.7	5.59583E-001	1.63732E-003	0.00000E+000	5.60000E-001	6.50912E-005	10	...........
	96	4.85	5.89444E-001	1.67555E-003	0.00000E+000	5.90000E-001	7.31271E-005	10	...........
	99	5	6.19555E-001	1.70377E-003	0.00000E+000	6.20000E-001	6.85590E-005	10	...........
	102	5.15	6.49591E-001	1.72326E-003	0.00000E+000	6.50000E-001	7.12932E-005	10	...........
	105	5.3	6.79400E-001	1.72859E-003	0.00000E+000	6.80000E-001	7.53278E-005	10	...........
	108	5.45	7.09430E-001	1.72461E-003	0.00000E+000	7.10000E-001	7.26603E-005	10	...........
	111	5.6	7.39511E-001	1.71467E-003	0.00000E+000	7.40000E-001	7.29938E-005	10	...........
	114	5.75	7.69606E-001	1.70814E-003	0.00000E+000	7.70000E-001	7.33939E-005	10	...........
	117	5.9	7.99391E-001	1.71229E-003	0.00000E+000	8.00000E-001	7.72951E-005	10	...........
	120	6.05	8.29413E-001	1.73984E-003	0.00000E+000	8.30000E-001	7.20601E-005	10	...........
	123	6.2	8.59435E-001	1.80135E-003	0.00000E+000	8.60000E-001	7.98626E-005	10	...........
	126	6.35	8.89584E-001	1.92238E-003	0.00000E+000	8.90000E-001	6.77254E-005	10	...........
	129	6.5	8.79456E-001	1.00655E-003	0.00000E+000	8.80000E-001	7.75285E-005	10	...........
	132	6.65	8.49612E-001	4.59628E-004	0.00000E+000	8.50000E-001	6.87257E-005	10	...........
	135	6.8	8.19543E-001	2.31706E-004	0.00000E+000	8.20000E-001	8.23300E-005	10	...........
	138	6.95	7.89513E-001	1.21229E-004	0.00000E+000	7.90000E-001	7.36940E-005	10	...........
	141	7.1	7.59141E-001	6.16633E-005	0.00000E+000	7.60000E-001	7.40274E-005	10	...........
	144	7.25	7.29611E-001	2.52531E-005	0.00000E+000	7.30000E-001	6.73586E-005	10	...........
	147	7.4	6.99597E-001	2.43867E-007	0.00000E+000	7.00000E-001	6.76587E-005	10	...........
	150	7.55	6.69519E-001	-1.87932E-005	0.00000E+000	6.70000E-001	7.34606E-005	10	...........
	153	7.7	6.39606E-001	-3.60362E-005	0.00000E+000	6.40000E-001	7.14599E-005	10	...........
	156	7.85	6.09722E-001	-5.26404E-005	0.00000E+000	6.10000E-001	7.20601E-005	10	...........
	159	8	5.79714E-001	-6.85123E-005	0.00000E+000	5.80000E-001	6.38575E-005	10	...........
	162	8.15	5.49634E-001	-8.40354E-005	0.00000E+000	5.50000E-001	7.07931E-005	10	...........
	165	8.3	5.19703E-001	-1.00583E-004	0.00000E+000	5.20000E-001	7.20935E-005	10	...........
	168	8.45	4.89765E-001	-1.18297E-004	0.00000E+000	4.90000E-001	7.11598E-005	10	...........
	171	8.6	4.59777E-001	-1.38160E-004	0.00000E+000	4.60000E-001	6.83923E-005	10	...........
	174	8.75	4.29528E-001	-1.60551E-004	0.00000E+000	4.30000E-001	7.22602E-005	10	...........
	177	8.9	3.99989E-001	-1.87153E-004	0.00000E+000	4.00000E-001	6.92926E-005	10	...........
	180	9.05	3.69850E-001	-2.17881E-004	0.00000E+000	3.70000E-001	7.60280E-005	10	...........
	183	9.2	3.39861E-001	-2.56076E-004	0.00000E+000	3.40000E-001	7.37273E-005	10	...........
	186	9.35	3.09806E-001	-3.03331E-004	0.00000E+000	3.10000E-001	7.77953E-005	10	...........
	189	9.5	2.80067E-001	-3.62808E-004	0.00000E+000	2.80000E-001	7.22602E-005	10	...........
	192	9.65	2.49960E-001	-4.38690E-004	0.00000E+000	2.50000E-001	7.53612E-005	10	...........
	195	9.8	2.19921E-001	-5.38066E-004	0.00000E+000	2.20000E-001	7.79287E-005	10	...........
	198	9.95	1.89944E-001	-6.68873E-004	0.00000E+000	1.90000E-001	7.06263E-005	10	...........
	201	10.1	1.60088E-001	-8.48280E-004	0.00000E+000	1.60000E-001	7.43275E-005	10	...........
	204	10.25	1.30062E-001	-1.09366E-003	0.00000E+000	1.30000E-001	6.89925E-005	10	...........
	207	10.4	9.99319E-002	-1.42576E-003	0.00000E+000	1.00000E-001	7.60280E-005	10	...........
	210	10.55	7.00762E-002	-1.84245E-003	0.00000E+000	7.00000E-002	7.33272E-005	10	...........
	213	10.7	4.01500E-002	-2.27861E-003	0.00000E+000	4.00000E-002	7.42608E-005	10	...........
	216	10.85	1.01135E-002	-2.56765E-003	0.00000E+000	1.00000E-002	7.17600E-005	10	...........
	219	11	-1.98010E-002	-2.50443E-003	0.00000E+000	-2.00000E-002	7.42942E-005	10	...........
	222	11.15	-4.96505E-002	-2.03931E-003	0.00000E+000	-5.00000E-002	7.34272E-005	10	...........
	225	11.3	-7.97106E-002	-1.41182E-003	0.00000E+000	-8.00000E-002	7.73618E-005	10	...........
	228	11.45	-1.09714E-001	-8.87324E-004	0.00000E+000	-1.10000E-001	7.41274E-005	10	...........
	231	11.6	-1.39877E-001	-5.33897E-004	0.00000E+000	-1.40000E-001	7.81287E-005	10	...........
	234	11.75	-1.69670E-001	-3.07267E-004	0.00000E+000	-1.70000E-001	7.16266E-005	10	...........
	237	11.9	-1.99680E-001	-1.75661E-004	0.00000E+000	-2.00000E-001	7.47943E-005	10	...........
	240	12.05	-2.29675E-001	-1.15927E-004	0.00000E+000	-2.30000E-001	7.29938E-005	10	...........
	243	12.2	-2.59676E-001	-9.92497E-005	0.00000E+000	-2.60000E-001	7.34939E-005	10	...........
	246	12.35	-2.89521E-001	-1.05423E-004	0.00000E+000	-2.90000E-001	6.96927E-005	10	...........
	249	12.5	-3.19605E-001	-1.29027E-004	0.00000E+000	-3.20000E-001	7.04263E-005	10	...........
	252	12.65	-3.49598E-001	-1.81526E-004	0.00000E+000	-3.50000E-001	7.12265E-005	10	...........
	255	12.8	-3.79578E-001	-2.80533E-004	0.00000E+000	-3.80000E-001	6.91258E-005	10	...........
	258	12.95	-4.09473E-001	-4.76994E-004	0.00000E+000	-4.10000E-001	7.11932E-005	10	...........
	261	13.1	-4.39444E-001	-7.82616E-004	0.00000E+000	-4.40000E-001	6.70585E-005	10	...........
	264	13.25	-4.69657E-001	-9.22677E-004	0.00000E+000	-4.70000E-001	7.22935E-005	10	...........
	267	13.4	-4.99463E-001	-9.41913E-004	0.00000E+000	-5.00000E-001	6.87591E-005	10	...........
	270	13.55	-5.29413E-001	-1.04515E-003	0.00000E+000	-5.30000E-001	7.62281E-005	10	...........
	273	13.7	-5.59365E-001	-1.37645E-003	0.00000E+000	-5.60000E-001	7.37273E-005	10	...........
	276	13.85	-5.89465E-001	-1.92140E-003	0.00000E+000	-5.90000E-001	7.79287E-005	10	...........
	279	14	-6.19160E-001	-2.19602E-003	0.00000E+000	-6.20000E-001	7.16600E-005	10	...........
	282	14.15	-6.49265E-001	-2.29595E-003	0.00000E+000	-6.50000E-001	7.72284E-005	10	...........
	285	14.3	-6.79321E-001	-2.68210E-003	0.00000E+000	-6.80000E-001	6.86590E-005	10	...........
	286	14.35	-6.89259E-001	-2.92028E-003	0.00000E+000	-6.90000E-001	7.37607E-005	10	...........
CURVE2	TABLE
	Pt	T	Vf	Im	Vu	Sig	Ach	IERange	Over
	#	s	V vs. Ref.	A	V	V	V	#	bits
	287	14.4	-6.84362E-001	-1.48863E-003	0.00000E+000	-6.85000E-001	6.80588E-005	10	...........
	290	14.55	-6.54414E-001	7.74026E-004	0.00000E+000	-6.55000E-001	6.59582E-005	10	...........
	293	14.7	-6.24460E-001	1.23300E-003	0.00000E+000	-6.25000E-001	6.17902E-005	10	...........
	296	14.85	-5.94554E-001	1.48695E-003	0.00000E+000	-5.95000E-001	7.15933E-005	10	...........
	299	15	-5.64455E-001	1.68977E-003	0.00000E+000	-5.65000E-001	6.84923E-005	10	...........
	302	15.15	-5.34375E-001	1.33402E-003	0.00000E+000	-5.35000E-001	6.86590E-005	10	...........
	305	15.3	-5.04544E-001	1.08319E-003	0.00000E+000	-5.05000E-001	7.79953E-005	10	...........
	308	15.45	-4.74584E-001	1.08100E-003	0.00000E+000	-4.75000E-001	7.16600E-005	10	...........
	311	15.6	-4.44509E-001	1.17773E-003	0.00000E+000	-4.45000E-001	7.34939E-005	10	...........
	314	15.75	-4.14382E-001	1.16029E-003	0.00000E+000	-4.15000E-001	6.79922E-005	10	...........
	317	15.9	-3.84704E-001	6.06614E-004	0.00000E+000	-3.85000E-001	7.79620E-005	10	...........
	320	16.05	-3.54601E-001	4.11808E-004	0.00000E+000	-3.55000E-001	7.54612E-005	10	...........
	323	16.2	-3.24613E-001	3.27080E-004	0.00000E+000	-3.25000E-001	7.70284E-005	10	...........
	326	16.35	-2.94678E-001	2.98408E-004	0.00000E+000	-2.95000E-001	6.98261E-005	10	...........
	329	16.5	-2.64948E-001	3.23935E-004	0.00000E+000	-2.65000E-001	7.48277E-005	10	...........
	332	16.65	-2.34676E-001	3.80884E-004	0.00000E+000	-2.35000E-001	6.86257E-005	10	...........
	335	16.8	-2.04737E-001	4.54108E-004	0.00000E+000	-2.05000E-001	7.30604E-005	10	...........
	338	16.95	-1.74819E-001	5.20815E-004	0.00000E+000	-1.75000E-001	6.12567E-005	10	...........
	341	17.1	-1.44842E-001	5.65101E-004	0.00000E+000	-1.45000E-001	6.80588E-005	10	...........
	344	17.25	-1.14861E-001	5.74780E-004	0.00000E+000	-1.15000E-001	6.74920E-005	10	...........
	347	17.4	-8.47721E-002	5.57280E-004	0.00000E+000	-8.50000E-002	6.90592E-005	10	...........
	350	17.55	-5.49065E-002	5.19737E-004	0.00000E+000	-5.50000E-002	6.66250E-005	10	...........
	353	17.7	-2.49550E-002	4.75016E-004	0.00000E+000	-2.50000E-002	7.37273E-005	10	...........
	356	17.85	5.04522E-003	4.30712E-004	0.00000E+000	5.00001E-003	7.77619E-005	10	...........
	359	18	3.50901E-002	3.98952E-004	0.00000E+000	3.50000E-002	7.25936E-005	10	...........
	362	18.15	6.47354E-002	3.84356E-004	0.00000E+000	6.50000E-002	7.16600E-005	10	...........
	365	18.3	9.50023E-002	3.93979E-004	0.00000E+000	9.50000E-002	6.78254E-005	10	...........
	368	18.45	1.24988E-001	4.34775E-004	0.00000E+000	1.25000E-001	6.87591E-005	10	...........
	371	18.6	1.55098E-001	5.26335E-004	0.00000E+000	1.55000E-001	6.49579E-005	10	...........
	374	18.75	1.84833E-001	6.61688E-004	0.00000E+000	1.85000E-001	7.03596E-005	10	...........
	377	18.9	2.14883E-001	7.94607E-004	0.00000E+000	2.15000E-001	7.08597E-005	10	...........
	380	19.05	2.44883E-001	9.37457E-004	0.00000E+000	2.45000E-001	6.99594E-005	10	...........
	383	19.2	2.74837E-001	1.05566E-003	0.00000E+000	2.75000E-001	6.59248E-005	10	...........
	386	19.35	3.04640E-001	1.12288E-003	0.00000E+000	3.05000E-001	7.06263E-005	10	...........
	389	19.5	3.34802E-001	1.16047E-003	0.00000E+000	3.35000E-001	6.40909E-005	10	...........
	392	19.65	3.64836E-001	1.19680E-003	0.00000E+000	3.65000E-001	6.42576E-005	10	...........
	395	19.8	3.94705E-001	1.22284E-003	0.00000E+000	3.95000E-001	6.65584E-005	10	...........
	398	19.95	4.24632E-001	1.21853E-003	0.00000E+000	4.25000E-001	7.02929E-005	10	...........
	401	20.1	4.54715E-001	1.19702E-003	0.00000E+000	4.55000E-001	6.99928E-005	10	...........
	404	20.25	4.84824E-001	1.19061E-003	0.00000E+000	4.85000E-001	6.95927E-005	10	...........
	407	20.4	5.14553E-001	1.20529E-003	0.00000E+000	5.15000E-001	7.52278E-005	10	...........
	410	20.55	5.44614E-001	1.23315E-003	0.00000E+000	5.45000E-001	7.18600E-005	10	...........
	413	20.7	5.74618E-001	1.26339E-003	0.00000E+000	5.75000E-001	7.61614E-005	10	...........
	416	20.85	6.04768E-001	1.29071E-003	0.00000E+000	6.05000E-001	6.51579E-005	10	...........
	419	21	6.34243E-001	1.30815E-003	0.00000E+000	6.35000E-001	6.98261E-005	10	...........
	422	21.15	6.64538E-001	1.31135E-003	0.00000E+000	6.65000E-001	7.13932E-005	10	...........
	425	21.3	6.94521E-001	1.30179E-003	0.00000E+000	6.95000E-001	7.47610E-005	10	...........
	428	21.45	7.24496E-001	1.28430E-003	0.00000E+000	7.25000E-001	6.80255E-005	10	...........
	431	21.6	7.54405E-001	1.26854E-003	0.00000E+000	7.55000E-001	6.71252E-005	10	...........
	434	21.75	7.84469E-001	1.26756E-003	0.00000E+000	7.85000E-001	6.64250E-005	10	...........
	437	21.9	8.14456E-001	1.29433E-003	0.00000E+000	8.15000E-001	7.02595E-005	10	...........
	440	22.05	8.44445E-001	1.36363E-003	0.00000E+000	8.45000E-001	6.63250E-005	10	...........
[...]
	2975	148.8	7.54412E-001	1.18747E-003	0.00000E+000	7.55000E-001	6.66584E-005	10	...........
	2978	148.95	7.84483E-001	1.18039E-003	0.00000E+000	7.85000E-001	5.99563E-005	10	...........
	2981	149.1	8.14462E-001	1.20303E-003	0.00000E+000	8.15000E-001	6.18569E-005	10	...........
	2984	149.25	8.44465E-001	1.27839E-003	0.00000E+000	8.45000E-001	6.37241E-005	10	...........
	2987	149.4	8.74242E-001	1.42550E-003	0.00000E+000	8.75000E-001	6.88258E-005	10	...........
	2990	149.55	8.84587E-001	1.00438E-003	0.00000E+000	8.85000E-001	6.91258E-005	10	...........
	2993	149.7	8.54522E-001	3.79318E-004	0.00000E+000	8.55000E-001	6.52913E-005	10	...........
	2996	149.85	8.24535E-001	1.64301E-004	0.00000E+000	8.25000E-001	6.50912E-005	10	...........
	2999	150	7.94397E-001	7.14016E-005	0.00000E+000	7.95000E-001	6.68251E-005	10	...........
	3002	150.15	7.64620E-001	2.97841E-005	0.00000E+000	7.65000E-001	6.19236E-005	10	...........
	3005	150.3	7.34602E-001	4.19400E-006	0.00000E+000	7.35000E-001	5.99563E-005	10	...........
	3008	150.45	7.04606E-001	-1.13431E-005	0.00000E+000	7.05000E-001	5.99896E-005	10	...........
	3011	150.6	6.74596E-001	-2.80753E-005	0.00000E+000	6.75000E-001	6.52913E-005	10	...........
	3014	150.75	6.44680E-001	-4.06019E-005	0.00000E+000	6.45000E-001	5.91227E-005	10	...........
	3017	150.9	6.14660E-001	-5.83498E-005	0.00000E+000	6.15000E-001	6.74920E-005	10	...........
	3020	151.05	5.84707E-001	-7.21770E-005	0.00000E+000	5.85000E-001	6.43577E-005	10	...........
	3023	151.2	5.54338E-001	-9.05458E-005	0.00000E+000	5.55000E-001	6.51246E-005	10	...........
	3026	151.35	5.24735E-001	-1.06621E-004	0.00000E+000	5.25000E-001	6.54247E-005	10	...........
	3029	151.5	4.94752E-001	-1.27112E-004	0.00000E+000	4.95000E-001	6.66917E-005	10	...........
	3032	151.65	4.64721E-001	-1.45235E-004	0.00000E+000	4.65000E-001	6.23904E-005	10	...........
	3035	151.8	4.34737E-001	-1.70213E-004	0.00000E+000	4.35000E-001	6.12233E-005	10	...........
	3038	151.95	4.04909E-001	-1.94031E-004	0.00000E+000	4.05000E-001	6.09566E-005	10	...........
	3041	152.1	3.74884E-001	-2.27023E-004	0.00000E+000	3.75000E-001	5.29207E-005	10	...........
	3044	152.25	3.44801E-001	-2.63493E-004	0.00000E+000	3.45000E-001	5.97562E-005	10	...........
	3047	152.4	3.14881E-001	-3.13114E-004	0.00000E+000	3.15000E-001	5.84558E-005	10	...........
	3050	152.55	2.84953E-001	-3.71288E-004	0.00000E+000	2.85000E-001	6.56914E-005	10	...........
	3053	152.7	2.54941E-001	-4.51881E-004	0.00000E+000	2.55000E-001	6.09232E-005	10	...........
	3056	152.85	2.24733E-001	-5.52672E-004	0.00000E+000	2.25000E-001	6.73586E-005	10	...........
	3059	153	1.95107E-001	-6.94376E-004	0.00000E+000	1.95000E-001	5.87225E-005	10	...........
	3062	153.15	1.65027E-001	-8.86914E-004	0.00000E+000	1.65000E-001	7.09931E-005	10	...........
	3065	153.3	1.35040E-001	-1.16319E-003	0.00000E+000	1.35000E-001	6.39909E-005	10	...........
	3068	153.45	1.04964E-001	-1.54365E-003	0.00000E+000	1.05000E-001	6.66584E-005	10	...........
	3071	153.6	7.52680E-002	-2.04331E-003	0.00000E+000	7.50000E-002	6.08566E-005	10	...........
	3074	153.75	4.51480E-002	-2.58369E-003	0.00000E+000	4.50000E-002	6.90258E-005	10	...........
	3077	153.9	1.51236E-002	-2.96032E-003	0.00000E+000	1.50000E-002	6.51579E-005	10	...........
	3080	154.05	-1.48267E-002	-2.86874E-003	0.00000E+000	-1.50000E-002	6.35908E-005	10	...........
	3083	154.2	-4.47211E-002	-2.22870E-003	0.00000E+000	-4.50000E-002	6.52246E-005	10	...........
	3086	154.35	-7.47536E-002	-1.39364E-003	0.00000E+000	-7.50000E-002	6.41576E-005	10	...........
	3089	154.5	-1.04867E-001	-7.68730E-004	0.00000E+000	-1.05000E-001	6.96927E-005	10	...........
	3092	154.65	-1.34720E-001	-3.90027E-004	0.00000E+000	-1.35000E-001	6.12233E-005	10	...........
	3095	154.8	-1.64682E-001	-1.74343E-004	0.00000E+000	-1.65000E-001	6.69585E-005	10	...........
	3098	154.95	-1.94685E-001	-6.32897E-005	0.00000E+000	-1.95000E-001	6.09566E-005	10	...........
	3101	155.1	-2.24667E-001	-3.25336E-005	0.00000E+000	-2.25000E-001	6.01563E-005	10	...........
	3104	155.25	-2.54515E-001	-3.66912E-005	0.00000E+000	-2.55000E-001	6.23570E-005	10	...........
	3107	155.4	-2.84552E-001	-6.28328E-005	0.00000E+000	-2.85000E-001	6.49245E-005	10	...........
	3110	155.55	-3.14523E-001	-9.75357E-005	0.00000E+000	-3.15000E-001	6.18902E-005	10	...........
	3113	155.7	-3.44667E-001	-1.65153E-004	0.00000E+000	-3.45000E-001	7.23269E-005	10	...........
	3116	155.85	-3.74520E-001	-2.70720E-004	0.00000E+000	-3.75000E-001	6.85257E-005	10	...........
	3119	156	-4.04506E-001	-5.15306E-004	0.00000E+000	-4.05000E-001	6.91925E-005	10	...........
	3122	156.15	-4.34490E-001	-9.61679E-004	0.00000E+000	-4.35000E-001	6.83256E-005	10	...........
	3125	156.3	-4.64504E-001	-1.04031E-003	0.00000E+000	-4.65000E-001	7.03596E-005	10	...........
	3128	156.45	-4.94367E-001	-8.86202E-004	0.00000E+000	-4.95000E-001	6.50579E-005	10	...........
	3131	156.6	-5.24467E-001	-9.43448E-004	0.00000E+000	-5.25000E-001	6.55914E-005	10	...........
	3134	156.75	-5.54417E-001	-1.27343E-003	0.00000E+000	-5.55000E-001	6.44244E-005	10	...........
	3137	156.9	-5.84402E-001	-1.94520E-003	0.00000E+000	-5.85000E-001	6.88258E-005	10	...........
	3140	157.05	-6.14275E-001	-2.07124E-003	0.00000E+000	-6.15000E-001	6.69252E-005	10	...........
	3143	157.2	-6.44263E-001	-2.02742E-003	0.00000E+000	-6.45000E-001	6.77254E-005	10	...........
	3146	157.35	-6.74455E-001	-2.29378E-003	0.00000E+000	-6.75000E-001	7.04930E-005	10	...........
	3148	157.45	-6.94232E-001	-2.75678E-003	0.00000E+000	-6.95000E-001	7.31271E-005	10	...........
CURVE11	TABLE
	Pt	T	Vf	Im	Vu	Sig	Ach	IERange	Over
	#	s	V vs. Ref.	A	V	V	V	#	bits
	3149	157.5	-6.84387E-001	-7.10947E-004	0.00000E+000	-6.85000E-001	6.51246E-005	10	...........
	3150	157.55	-6.74551E-001	2.69894E-004	0.00000E+000	-6.75000E-001	7.35606E-005	10	...........
	3151	157.6	-6.64423E-001	8.06403E-004	0.00000E+000	-6.65000E-001	6.77587E-005	10	...........
	3152	157.65	-6.54396E-001	1.10119E-003	0.00000E+000	-6.55000E-001	6.74253E-005	10	...........
	3153	157.7	-6.44357E-001	1.24826E-003	0.00000E+000	-6.45000E-001	6.32907E-005	10	...........
	3154	157.75	-6.34480E-001	1.33918E-003	0.00000E+000	-6.35000E-001	6.94593E-005	10	...........
	3155	157.8	-6.24450E-001	1.39679E-003	0.00000E+000	-6.25000E-001	6.34240E-005	10	...........
	3156	157.85	-6.14353E-001	1.45782E-003	0.00000E+000	-6.15000E-001	6.45577E-005	10	...........
	3157	157.9	-6.04460E-001	1.51978E-003	0.00000E+000	-6.05000E-001	6.56914E-005	10	...........
	3158	157.95	-5.94551E-001	1.60749E-003	0.00000E+000	-5.95000E-001	6.96927E-005	10	...........
	3159	158	-5.84510E-001	1.70387E-003	0.00000E+000	-5.85000E-001	6.66584E-005	10	...........
	3160	158.05	-5.74364E-001	1.81431E-003	0.00000E+000	-5.75000E-001	6.31906E-005	10	...........
	3161	158.1	-5.64457E-001	1.88524E-003	0.00000E+000	-5.65000E-001	6.78588E-005	10	...........
	3162	158.15	-5.54519E-001	1.84427E-003	0.00000E+000	-5.55000E-001	6.36574E-005	10	...........
	3163	158.2	-5.44560E-001	1.64802E-003	0.00000E+000	-5.45000E-001	6.38909E-005	10	...........
	3164	158.25	-5.34373E-001	1.41867E-003	0.00000E+000	-5.35000E-001	6.43243E-005	10	...........
	3165	158.3	-5.24511E-001	1.23952E-003	0.00000E+000	-5.25000E-001	7.11932E-005	10	...........
	3166	158.35	-5.14552E-001	1.14578E-003	0.00000E+000	-5.15000E-001	6.73253E-005	10	...........
	3167	158.4	-5.04538E-001	1.10426E-003	0.00000E+000	-5.05000E-001	6.73920E-005	10	...........
	3168	158.45	-4.94393E-001	1.11326E-003	0.00000E+000	-4.95000E-001	6.03564E-005	10	...........
	3169	158.5	-4.84515E-001	1.13115E-003	0.00000E+000	-4.85000E-001	6.57581E-005	10	...........
	3170	158.55	-4.74569E-001	1.14713E-003	0.00000E+000	-4.75000E-001	6.34907E-005	10	...........
	3171	158.6	-4.64575E-001	1.15157E-003	0.00000E+000	-4.65000E-001	6.95260E-005	10	...........
	3172	158.65	-4.54446E-001	1.19683E-003	0.00000E+000	-4.55000E-001	6.04231E-005	10	...........
	3173	158.7	-4.44507E-001	1.28067E-003	0.00000E+000	-4.45000E-001	6.59582E-005	10	...........
	3174	158.75	-4.34563E-001	1.38786E-003	0.00000E+000	-4.35000E-001	6.73586E-005	10	...........
	3175	158.8	-4.24620E-001	1.42899E-003	0.00000E+000	-4.25000E-001	6.87924E-005	10	...........
	3176	158.85	-4.14377E-001	1.32941E-003	0.00000E+000	-4.15000E-001	6.21236E-005	10	...........
	3177	158.9	-4.04578E-001	1.06623E-003	0.00000E+000	-4.05000E-001	6.88591E-005	10	...........
	3178	158.95	-3.94575E-001	7.99063E-004	0.00000E+000	-3.95000E-001	6.29572E-005	10	...........
	3179	159	-3.84680E-001	6.15889E-004	0.00000E+000	-3.85000E-001	6.61582E-005	10	...........
	3180	159.05	-3.74576E-001	5.18997E-004	0.00000E+000	-3.75000E-001	6.45577E-005	10	...........