File: 20190222 HUPD/CV_test_4.DTA
EXPLAIN
TAG	CV
TITLE	LABEL	CV	Test &Identifier
DATE	LABEL	2/22/2019	Date
TIME	LABEL	11:07:45	Time
NOTES	NOTES	2	&Notes...
	0.5 M H2SO4
	Pt-wire CE
PSTAT	PSTAT	REF600-16093	Potentiostat
VINIT	POTEN	0.00000E+000	T	Initial &E (V)
VLIMIT1	POTEN	1.00000E+000	F	Scan Limit &1 (V)
VLIMIT2	POTEN	-7.00000E-001	F	Scan Limit &2 (V)
VFINAL	POTEN	0.00000E+000	T	Final &E (V)
SCANRATE	QUANT	2.00000E+002	&Scan Rate (mV/s)
STEPSIZE	QUANT	1.00000E+001	St&ep Size (mV)
CYCLES	IQUANT	20	C&ycles (#)
IMODE	SELECTOR	1	I/E Range &Mode
IRANGE	QUANT	1.00000E+001	&Max Current (mA)
AREA	QUANT	1.00000E+000	Electrode &Area (cm^2)
ELECTRODETYPE	SELECTOR	0	Electrode Type
STRIPPING	TOGGLE	F	Used for Stripping
POLARITY	TOGGLE	F	Signal Polarity
CONDIT	TWOPARAM	F	1.50000E+001	0.00000E+000	Conditionin&g	Time(s)	E(V)
DELAY	TWOPARAM	T	5.00000E+000	0.00000E+000	Init. De&lay	Time(s)	Stab.(mV/s)
EQDELAY	QUANT	5.00000E+000	Equil. &Time (s)
IRCOMP	SELECTOR	0	IRCom&p
PFCOR	QUANT	0.00000E+000	PF Corr. (ohm)
SAMPLINGMODE	SELECTOR	2	Sampling &Mode
OCVCURVE	TABLE	20
	Pt	T	Vf	Vm	Ach	Over
	#	s	V vs. Ref.	V	V	bits
	0	0.25	-3.83284E-001	-3.83284E-001	5.03265E-005	...........
	1	0.5	-3.83280E-001	-3.83057E-001	5.60265E-005	...........
	2	0.75	-3.83253E-001	-3.82856E-001	5.88264E-005	...........
	3	1	-3.83178E-001	-3.82595E-001	4.70933E-005	...........
	4	1.25	-3.83040E-001	-3.82317E-001	4.69266E-005	...........
	5	1.5	-3.82846E-001	-3.82216E-001	5.22932E-005	...........
	6	1.75	-3.82626E-001	-3.82008E-001	5.20599E-005	...........
	7	2	-3.82408E-001	-3.81783E-001	4.84599E-005	...........
	8	2.25	-3.82205E-001	-3.81650E-001	5.33932E-005	...........
	9	2.5	-3.82011E-001	-3.81369E-001	5.71598E-005	...........
	10	2.75	-3.81817E-001	-3.81159E-001	4.93266E-005	...........
	11	3	-3.81611E-001	-3.80800E-001	4.82932E-005	...........
	12	3.25	-3.81385E-001	-3.80680E-001	5.16265E-005	...........
	13	3.5	-3.81145E-001	-3.80491E-001	6.39263E-005	...........
	14	3.75	-3.80910E-001	-3.80300E-001	4.95932E-005	...........
	15	4	-3.80696E-001	-3.80107E-001	5.57931E-005	...........
	16	4.25	-3.80500E-001	-3.79958E-001	5.18599E-005	...........
	17	4.5	-3.80314E-001	-3.79731E-001	5.48931E-005	...........
	18	4.75	-3.80131E-001	-3.79550E-001	4.74599E-005	...........
	19	5	-3.79944E-001	-3.79252E-001	5.15599E-005	...........
EOC	QUANT	-0.3799435	Open Circuit (V)
PSTATMODEL	IQUANT	4	Pstat Model
PSTATSECTION	LABEL	REF600-16093	Pstat Section
PSTATSERIALNO	LABEL	16093	Pstat Serial Number
CTRLMODE	IQUANT	1	Control Mode
IESTAB	IQUANT	2	I/E Stability
CASPEED	IQUANT	2	Control Amp Speed
CONVENTION	IQUANT	1	Current Convention
ICHRANGE	IQUANT	2	Ich Range
ICHRANGEMODE	TOGGLE	F	Ich Auto Range
ICHOFFSETENABLE	TOGGLE	F	Ich Offset Enable
ICHOFFSET	QUANT	0	Ich Offset (V)
ICHFILTER	IQUANT	2	Ich Filter
VCHRANGE	IQUANT	2	Vch Range
VCHRANGEMODE	TOGGLE	F	Vch Auto Range
VCHOFFSETENABLE	TOGGLE	F	Vch Offset Enable
VCHOFFSET	QUANT	0	Vch Offset (V)
VCHFILTER	IQUANT	2	Vch Filter
ACHRANGE	IQUANT	2	Ach Range
ACHOFFSETENABLE	TOGGLE	F	Ach Offset Enable
ACHOFFSET	QUANT	0	Ach Offset (V)
ACHFILTER	IQUANT	1	Ach Filter
IERANGELOWERLIMIT	IQUANT	1	I/E Range Lower Limit
IERANGEMODE	TOGGLE	F	I/E AutoRange
IERANGE	IQUANT	10	I/E Range
POSFEEDENABLE	TOGGLE	F	Positive Feedback IR Comp
POSFEEDRESISTANCE	QUANT	0	Positive Feedback Resistance (ohm)
ACHSELECT	IQUANT	0	Ach Select
CABLEID	IQUANT	14	Cable ID
DCCALDATE	LABEL	2/18/2019	DC Calibration Date
ACCALDATE	LABEL	2/18/2019	AC Calibration Date
THERMOSELECT	IQUANT	1	Thermo Select
FRAMEWORKVERSION	QUANT	6.33	Framework Version
INSTRUMENTVERSION	LABEL	3.50	Instrument Version
CURVE1	TABLE
	Pt	T	Vf	Im	Vu	Sig	Ach	IERange	Over
	#	s	V vs. Ref.	A	V	V	V	#	bits
	0	0.05	-3.79498E-001	-3.44950E-006	0.00000E+000	-3.79950E-001	8.48975E-005	10	...........
	3	0.2	-3.49577E-001	8.76703E-005	0.00000E+000	-3.49950E-001	9.25666E-005	10	...........
	6	0.35	-3.19584E-001	7.49556E-005	0.00000E+000	-3.19950E-001	8.86321E-005	10	...........
	9	0.5	-2.89528E-001	7.69230E-005	0.00000E+000	-2.89950E-001	8.89321E-005	10	...........
	12	0.65	-2.59620E-001	8.96543E-005	0.00000E+000	-2.59950E-001	8.59312E-005	10	...........
	15	0.8	-2.29693E-001	1.15085E-004	0.00000E+000	-2.29950E-001	8.68648E-005	10	...........
	18	0.95	-1.99658E-001	1.51349E-004	0.00000E+000	-1.99950E-001	9.36670E-005	10	...........
	21	1.1	-1.69610E-001	1.98942E-004	0.00000E+000	-1.69950E-001	8.82653E-005	10	...........
	24	1.25	-1.39732E-001	2.51783E-004	0.00000E+000	-1.39950E-001	9.56343E-005	10	...........
	27	1.4	-1.09754E-001	3.02534E-004	0.00000E+000	-1.09950E-001	9.46673E-005	10	...........
	30	1.55	-7.97213E-002	3.39348E-004	0.00000E+000	-7.99500E-002	1.04670E-004	10	...........
	33	1.7	-4.96150E-002	3.57960E-004	0.00000E+000	-4.99500E-002	9.68013E-005	10	...........
	36	1.85	-1.98050E-002	3.58143E-004	0.00000E+000	-1.99500E-002	1.04204E-004	10	...........
	39	2	1.01446E-002	3.51173E-004	0.00000E+000	1.00500E-002	9.23332E-005	10	...........
	42	2.15	4.01690E-002	3.47841E-004	0.00000E+000	4.00500E-002	1.02336E-004	10	...........
	45	2.3	7.02426E-002	3.60403E-004	0.00000E+000	7.00500E-002	9.51341E-005	10	...........
	48	2.45	1.00047E-001	3.93062E-004	0.00000E+000	1.00050E-001	9.92021E-005	10	...........
	51	2.6	1.30058E-001	4.49161E-004	0.00000E+000	1.30050E-001	9.33335E-005	10	...........
	54	2.75	1.60062E-001	5.24417E-004	0.00000E+000	1.60050E-001	9.28334E-005	10	...........
	57	2.9	1.89965E-001	6.25044E-004	0.00000E+000	1.90050E-001	8.73650E-005	10	...........
	60	3.05	2.19845E-001	7.46222E-004	0.00000E+000	2.20050E-001	9.49341E-005	10	...........
	63	3.2	2.49980E-001	8.94010E-004	0.00000E+000	2.50050E-001	8.71983E-005	10	...........
	66	3.35	2.80035E-001	1.05664E-003	0.00000E+000	2.80050E-001	9.16663E-005	10	...........
	69	3.5	3.09867E-001	1.22883E-003	0.00000E+000	3.10050E-001	9.89020E-005	10	...........
	72	3.65	3.39835E-001	1.38318E-003	0.00000E+000	3.40050E-001	9.19665E-005	10	...........
	75	3.8	3.69846E-001	1.51681E-003	0.00000E+000	3.70050E-001	9.57343E-005	10	...........
	78	3.95	4.00009E-001	1.61703E-003	0.00000E+000	4.00050E-001	8.34971E-005	10	...........
	81	4.1	4.29829E-001	1.68411E-003	0.00000E+000	4.30050E-001	9.36003E-005	10	...........
	84	4.25	4.59800E-001	1.71533E-003	0.00000E+000	4.60050E-001	9.42005E-005	10	...........
	87	4.4	4.89785E-001	1.73615E-003	0.00000E+000	4.90050E-001	9.85685E-005	10	...........
	90	4.55	5.19771E-001	1.75735E-003	0.00000E+000	5.20050E-001	8.84987E-005	10	...........
	93	4.7	5.49662E-001	1.78982E-003	0.00000E+000	5.50050E-001	9.81017E-005	10	...........
	96	4.85	5.79727E-001	1.82437E-003	0.00000E+000	5.80050E-001	8.87654E-005	10	...........
	99	5	6.09704E-001	1.86280E-003	0.00000E+000	6.10050E-001	9.76349E-005	10	...........
	102	5.15	6.39660E-001	1.89264E-003	0.00000E+000	6.40050E-001	8.57645E-005	10	...........
	105	5.3	6.69535E-001	1.91514E-003	0.00000E+000	6.70050E-001	9.59677E-005	10	...........
	108	5.45	6.99591E-001	1.92225E-003	0.00000E+000	7.00050E-001	8.80652E-005	10	...........
	111	5.6	7.29615E-001	1.92124E-003	0.00000E+000	7.30050E-001	9.14996E-005	10	...........
	114	5.75	7.59515E-001	1.91345E-003	0.00000E+000	7.60050E-001	9.07994E-005	10	...........
	117	5.9	7.89448E-001	1.91155E-003	0.00000E+000	7.90050E-001	9.02993E-005	10	...........
	120	6.05	8.19537E-001	1.92043E-003	0.00000E+000	8.20050E-001	9.17330E-005	10	...........
	123	6.2	8.49616E-001	1.95740E-003	0.00000E+000	8.50050E-001	9.27667E-005	10	...........
	126	6.35	8.79453E-001	2.03980E-003	0.00000E+000	8.80050E-001	1.01836E-004	10	...........
	129	6.5	9.09416E-001	2.20349E-003	0.00000E+000	9.10050E-001	8.77651E-005	10	...........
	132	6.65	9.39466E-001	2.48439E-003	0.00000E+000	9.40050E-001	9.00992E-005	10	...........
	135	6.8	9.69572E-001	2.94251E-003	0.00000E+000	9.70050E-001	8.90322E-005	10	...........
	138	6.95	9.99348E-001	3.63377E-003	0.00000E+000	1.00005E+000	9.84018E-005	10	...........
	141	7.1	9.69675E-001	1.60065E-003	0.00000E+000	9.70050E-001	8.78318E-005	10	...........
	144	7.25	9.39557E-001	7.47716E-004	0.00000E+000	9.40050E-001	9.06994E-005	10	...........
	147	7.4	9.09486E-001	3.59306E-004	0.00000E+000	9.10050E-001	8.83653E-005	10	...........
	150	7.55	8.79586E-001	1.73720E-004	0.00000E+000	8.80050E-001	9.37003E-005	10	...........
	153	7.7	8.49705E-001	7.98334E-005	0.00000E+000	8.50050E-001	9.15330E-005	10	...........
	156	7.85	8.19624E-001	2.83950E-005	0.00000E+000	8.20050E-001	9.23999E-005	10	...........
	159	8	7.89545E-001	-3.64358E-007	0.00000E+000	7.90050E-001	9.31001E-005	10	...........
	162	8.15	7.59621E-001	-2.10227E-005	0.00000E+000	7.60050E-001	9.75682E-005	10	...........
	165	8.3	7.29708E-001	-3.41402E-005	0.00000E+000	7.30050E-001	8.99992E-005	10	...........
	168	8.45	6.99686E-001	-4.74125E-005	0.00000E+000	7.00050E-001	8.72649E-005	10	...........
	171	8.6	6.69651E-001	-5.77823E-005	0.00000E+000	6.70050E-001	9.25666E-005	10	...........
	174	8.75	6.39731E-001	-6.96700E-005	0.00000E+000	6.40050E-001	8.81319E-005	10	...........
	177	8.9	6.09792E-001	-7.97518E-005	0.00000E+000	6.10050E-001	9.37670E-005	10	...........
	180	9.05	5.79822E-001	-9.21317E-005	0.00000E+000	5.80050E-001	8.90655E-005	10	...........
	183	9.2	5.49751E-001	-1.03525E-004	0.00000E+000	5.50050E-001	1.00402E-004	10	...........
	186	9.35	5.19826E-001	-1.18057E-004	0.00000E+000	5.20050E-001	9.28667E-005	10	...........
	189	9.5	4.89871E-001	-1.32759E-004	0.00000E+000	4.90050E-001	1.00703E-004	10	...........
	192	9.65	4.59884E-001	-1.51398E-004	0.00000E+000	4.60050E-001	9.07994E-005	10	...........
	195	9.8	4.29895E-001	-1.70539E-004	0.00000E+000	4.30050E-001	9.83018E-005	10	...........
	198	9.95	4.00067E-001	-1.96127E-004	0.00000E+000	4.00050E-001	8.82319E-005	10	...........
	201	10.1	3.69935E-001	-2.23384E-004	0.00000E+000	3.70050E-001	9.54676E-005	10	...........
	204	10.25	3.39902E-001	-2.60499E-004	0.00000E+000	3.40050E-001	9.42338E-005	10	...........
	207	10.4	3.09939E-001	-3.02952E-004	0.00000E+000	3.10050E-001	9.71348E-005	10	...........
	210	10.55	2.80107E-001	-3.59203E-004	0.00000E+000	2.80050E-001	9.05660E-005	10	...........
	213	10.7	2.50043E-001	-4.27129E-004	0.00000E+000	2.50050E-001	8.67981E-005	10	...........
	216	10.85	2.19944E-001	-5.17960E-004	0.00000E+000	2.20050E-001	9.15330E-005	10	...........
	219	11	1.90035E-001	-6.33018E-004	0.00000E+000	1.90050E-001	8.12630E-005	10	...........
	222	11.15	1.60127E-001	-7.89870E-004	0.00000E+000	1.60050E-001	9.04660E-005	10	...........
	225	11.3	1.30150E-001	-9.98298E-004	0.00000E+000	1.30050E-001	8.29969E-005	10	...........
	228	11.45	1.00167E-001	-1.29016E-003	0.00000E+000	1.00050E-001	9.70014E-005	10	...........
	231	11.6	7.03202E-002	-1.68814E-003	0.00000E+000	7.00500E-002	8.93990E-005	10	...........
	234	11.75	4.02613E-002	-2.20045E-003	0.00000E+000	4.00500E-002	1.03370E-004	10	...........
	237	11.9	1.02169E-002	-2.74257E-003	0.00000E+000	1.00500E-002	8.65647E-005	10	...........
	240	12.05	-1.97246E-002	-3.11174E-003	0.00000E+000	-1.99500E-002	9.81684E-005	10	...........
	243	12.2	-4.95494E-002	-3.02596E-003	0.00000E+000	-4.99500E-002	9.07661E-005	10	...........
	246	12.35	-7.96363E-002	-2.43334E-003	0.00000E+000	-7.99500E-002	9.91020E-005	10	...........
	249	12.5	-1.09682E-001	-1.66117E-003	0.00000E+000	-1.09950E-001	1.00269E-004	10	...........
	252	12.65	-1.39709E-001	-1.04547E-003	0.00000E+000	-1.39950E-001	1.01469E-004	10	...........
	255	12.8	-1.69607E-001	-6.35785E-004	0.00000E+000	-1.69950E-001	9.67346E-005	10	...........
	258	12.95	-1.99594E-001	-3.88426E-004	0.00000E+000	-1.99950E-001	9.10662E-005	10	...........
	261	13.1	-2.29623E-001	-2.53280E-004	0.00000E+000	-2.29950E-001	9.86019E-005	10	...........
	264	13.25	-2.59553E-001	-1.93124E-004	0.00000E+000	-2.59950E-001	9.87019E-005	10	...........
	267	13.4	-2.89464E-001	-1.69963E-004	0.00000E+000	-2.89950E-001	9.71348E-005	10	...........
	270	13.55	-3.19513E-001	-1.77073E-004	0.00000E+000	-3.19950E-001	9.28334E-005	10	...........
	273	13.7	-3.49486E-001	-2.16079E-004	0.00000E+000	-3.49950E-001	1.04170E-004	10	...........
	276	13.85	-3.79443E-001	-3.11745E-004	0.00000E+000	-3.79950E-001	9.11329E-005	10	...........
	279	14	-4.09404E-001	-5.07458E-004	0.00000E+000	-4.09950E-001	9.09328E-005	10	...........
	282	14.15	-4.39338E-001	-8.23216E-004	0.00000E+000	-4.39950E-001	9.09328E-005	10	...........
	285	14.3	-4.69372E-001	-9.66396E-004	0.00000E+000	-4.69950E-001	1.01203E-004	10	...........
	288	14.45	-4.99358E-001	-9.76918E-004	0.00000E+000	-4.99950E-001	8.94990E-005	10	...........
	291	14.6	-5.29327E-001	-1.07283E-003	0.00000E+000	-5.29950E-001	9.99690E-005	10	...........
	294	14.75	-5.59284E-001	-1.40804E-003	0.00000E+000	-5.59950E-001	9.36336E-005	10	...........
	297	14.9	-5.89275E-001	-1.96305E-003	0.00000E+000	-5.89950E-001	9.86686E-005	10	...........
	300	15.05	-6.19098E-001	-2.24928E-003	0.00000E+000	-6.19950E-001	9.59677E-005	10	...........
	303	15.2	-6.49176E-001	-2.32413E-003	0.00000E+000	-6.49950E-001	9.13996E-005	10	...........
	306	15.35	-6.79224E-001	-2.69722E-003	0.00000E+000	-6.79950E-001	9.28667E-005	10	...........
	308	15.45	-6.99080E-001	-3.28311E-003	0.00000E+000	-6.99950E-001	9.48674E-005	10	...........
CURVE2	TABLE
	Pt	T	Vf	Im	Vu	Sig	Ach	IERange	Over
	#	s	V vs. Ref.	A	V	V	V	#	bits
	309	15.5	-6.89314E-001	-1.22292E-003	0.00000E+000	-6.90000E-001	9.81351E-005	10	...........
	313	15.7	-6.49321E-001	1.12500E-003	0.00000E+000	-6.50000E-001	9.31001E-005	10	...........
	317	15.9	-6.09381E-001	1.47020E-003	0.00000E+000	-6.10000E-001	9.18998E-005	10	...........
	321	16.1	-5.69403E-001	1.77059E-003	0.00000E+000	-5.70000E-001	9.74349E-005	10	...........
	325	16.3	-5.29438E-001	1.34725E-003	0.00000E+000	-5.30000E-001	9.81351E-005	10	...........
	329	16.5	-4.89448E-001	1.14865E-003	0.00000E+000	-4.90000E-001	9.48007E-005	10	...........
	333	16.7	-4.49513E-001	1.21849E-003	0.00000E+000	-4.50000E-001	9.76016E-005	10	...........
	337	16.9	-4.09531E-001	1.14401E-003	0.00000E+000	-4.10000E-001	9.63345E-005	10	...........
	341	17.1	-3.69523E-001	5.00132E-004	0.00000E+000	-3.70000E-001	9.29001E-005	10	...........
	345	17.3	-3.29547E-001	3.40226E-004	0.00000E+000	-3.30000E-001	8.97658E-005	10	...........
	349	17.5	-2.89550E-001	2.94814E-004	0.00000E+000	-2.90000E-001	8.71316E-005	10	...........
	353	17.7	-2.49578E-001	3.38657E-004	0.00000E+000	-2.50000E-001	8.70982E-005	10	...........
	357	17.9	-2.09558E-001	4.24220E-004	0.00000E+000	-2.10000E-001	8.67648E-005	10	...........
	361	18.1	-1.69707E-001	5.08710E-004	0.00000E+000	-1.70000E-001	8.95990E-005	10	...........
	365	18.3	-1.29626E-001	5.52187E-004	0.00000E+000	-1.30000E-001	9.08327E-005	10	...........
	369	18.5	-8.98156E-002	5.42952E-004	0.00000E+000	-9.00000E-002	9.34669E-005	10	...........
	373	18.7	-4.97079E-002	4.98127E-004	0.00000E+000	-5.00000E-002	9.60011E-005	10	...........
	377	18.9	-9.69440E-003	4.37588E-004	0.00000E+000	-9.99999E-003	9.28334E-005	10	...........
	381	19.1	3.00884E-002	3.84802E-004	0.00000E+000	3.00000E-002	8.87654E-005	10	...........
	385	19.3	7.01497E-002	3.63444E-004	0.00000E+000	7.00000E-002	9.07327E-005	10	...........
	389	19.5	1.10023E-001	3.88457E-004	0.00000E+000	1.10000E-001	8.92656E-005	10	...........
	393	19.7	1.49968E-001	4.93976E-004	0.00000E+000	1.50000E-001	9.01992E-005	10	...........
	397	19.9	1.89909E-001	6.93235E-004	0.00000E+000	1.90000E-001	9.20998E-005	10	...........
	401	20.1	2.29928E-001	8.95474E-004	0.00000E+000	2.30000E-001	9.32669E-005	10	...........
	405	20.3	2.69876E-001	1.08437E-003	0.00000E+000	2.70000E-001	9.92021E-005	10	...........
	409	20.5	3.09829E-001	1.17981E-003	0.00000E+000	3.10000E-001	9.53342E-005	10	...........
	413	20.7	3.49808E-001	1.22992E-003	0.00000E+000	3.50000E-001	9.69347E-005	10	...........
	417	20.9	3.89791E-001	1.27171E-003	0.00000E+000	3.90000E-001	1.02103E-004	10	...........
	421	21.1	4.29760E-001	1.25849E-003	0.00000E+000	4.30000E-001	9.25666E-005	10	...........
	425	21.3	4.69717E-001	1.22448E-003	0.00000E+000	4.70000E-001	9.79017E-005	10	...........
	429	21.5	5.09701E-001	1.22386E-003	0.00000E+000	5.10000E-001	1.00236E-004	10	...........
	433	21.7	5.49610E-001	1.25441E-003	0.00000E+000	5.50000E-001	9.08327E-005	10	...........
	437	21.9	5.89539E-001	1.29501E-003	0.00000E+000	5.90000E-001	8.94323E-005	10	...........
	441	22.1	6.29452E-001	1.32417E-003	0.00000E+000	6.30000E-001	8.92989E-005	10	...........
	445	22.3	6.69477E-001	1.32929E-003	0.00000E+000	6.70000E-001	8.72649E-005	10	...........
	449	22.5	7.09442E-001	1.30892E-003	0.00000E+000	7.10000E-001	9.13996E-005	10	...........
	453	22.7	7.49443E-001	1.28157E-003	0.00000E+000	7.50000E-001	9.38671E-005	10	...........
	457	22.9	7.89436E-001	1.27728E-003	0.00000E+000	7.90000E-001	8.81319E-005	10	...........
	461	23.1	8.29441E-001	1.33059E-003	0.00000E+000	8.30000E-001	9.37337E-005	10	...........
	465	23.3	8.69428E-001	1.48682E-003	0.00000E+000	8.70000E-001	8.88321E-005	10	...........
	469	23.5	9.09395E-001	1.81931E-003	0.00000E+000	9.10000E-001	9.22665E-005	10	...........
	473	23.7	9.49394E-001	2.43274E-003	0.00000E+000	9.50000E-001	9.24666E-005	10	...........
	477	23.9	9.89380E-001	3.44969E-003	0.00000E+000	9.90000E-001	9.37003E-005	10	...........
	481	24.1	9.69613E-001	1.62493E-003	0.00000E+000	9.70000E-001	8.95657E-005	10	...........
	485	24.3	9.29544E-001	5.46762E-004	0.00000E+000	9.30000E-001	9.56676E-005	10	...........
	489	24.5	8.89687E-001	1.79287E-004	0.00000E+000	8.90000E-001	9.00658E-005	10	...........
[...]
	6537	326.9	3.89794E-001	1.27120E-003	0.00000E+000	3.90000E-001	9.05660E-005	10	...........
	6541	327.1	4.29772E-001	1.22892E-003	0.00000E+000	4.30000E-001	9.29334E-005	10	...........
	6545	327.3	4.69720E-001	1.16805E-003	0.00000E+000	4.70000E-001	9.45339E-005	10	...........
	6549	327.5	5.09708E-001	1.15321E-003	0.00000E+000	5.10000E-001	9.87686E-005	10	...........
	6553	327.7	5.49618E-001	1.17970E-003	0.00000E+000	5.50000E-001	9.57343E-005	10	...........
	6557	327.9	5.89550E-001	1.22295E-003	0.00000E+000	5.90000E-001	9.99023E-005	10	...........
	6561	328.1	6.29461E-001	1.25613E-003	0.00000E+000	6.30000E-001	9.45006E-005	10	...........
	6565	328.3	6.69489E-001	1.25963E-003	0.00000E+000	6.70000E-001	8.93990E-005	10	...........
	6569	328.5	7.09448E-001	1.23229E-003	0.00000E+000	7.10000E-001	9.19998E-005	10	...........
	6573	328.7	7.49451E-001	1.19474E-003	0.00000E+000	7.50000E-001	9.12996E-005	10	...........
	6577	328.9	7.89439E-001	1.18174E-003	0.00000E+000	7.90000E-001	9.00992E-005	10	...........
	6581	329.1	8.29449E-001	1.23018E-003	0.00000E+000	8.30000E-001	8.88655E-005	10	...........
	6585	329.3	8.69429E-001	1.38895E-003	0.00000E+000	8.70000E-001	8.92322E-005	10	...........
	6589	329.5	9.09398E-001	1.73352E-003	0.00000E+000	9.10000E-001	9.53675E-005	10	...........
	6593	329.7	9.49403E-001	2.37389E-003	0.00000E+000	9.50000E-001	8.83320E-005	10	...........
	6597	329.9	9.89391E-001	3.43588E-003	0.00000E+000	9.90000E-001	8.79318E-005	10	...........
	6601	330.1	9.69630E-001	1.61334E-003	0.00000E+000	9.70000E-001	8.69315E-005	10	...........
	6605	330.3	9.29582E-001	5.32615E-004	0.00000E+000	9.30000E-001	8.67981E-005	10	...........
	6609	330.5	8.89694E-001	1.67658E-004	0.00000E+000	8.90000E-001	8.16632E-005	10	...........
	6613	330.7	8.49693E-001	3.92236E-005	0.00000E+000	8.50000E-001	8.57311E-005	10	...........
	6617	330.9	8.09689E-001	-1.11957E-005	0.00000E+000	8.10000E-001	8.42640E-005	10	...........
	6621	331.1	7.69707E-001	-3.40482E-005	0.00000E+000	7.70000E-001	8.60979E-005	10	...........
	6625	331.3	7.29664E-001	-4.84062E-005	0.00000E+000	7.30000E-001	8.54644E-005	10	...........
	6629	331.5	6.89718E-001	-6.02626E-005	0.00000E+000	6.90000E-001	8.40639E-005	10	...........
	6633	331.7	6.49696E-001	-7.36108E-005	0.00000E+000	6.50000E-001	8.41973E-005	10	...........
	6637	331.9	6.09757E-001	-8.80162E-005	0.00000E+000	6.10000E-001	8.87654E-005	10	...........
	6641	332.1	5.69756E-001	-1.04766E-004	0.00000E+000	5.70000E-001	8.69315E-005	10	...........
	6645	332.3	5.29805E-001	-1.23117E-004	0.00000E+000	5.30000E-001	8.91989E-005	10	...........
	6649	332.5	4.89830E-001	-1.43954E-004	0.00000E+000	4.90000E-001	9.31668E-005	10	...........
	6653	332.7	4.49855E-001	-1.69478E-004	0.00000E+000	4.50000E-001	1.01469E-004	10	...........
	6657	332.9	4.09875E-001	-2.00287E-004	0.00000E+000	4.10000E-001	9.72015E-005	10	...........
	6661	333.1	3.69886E-001	-2.40003E-004	0.00000E+000	3.70000E-001	9.81351E-005	10	...........
	6665	333.3	3.29975E-001	-2.92118E-004	0.00000E+000	3.30000E-001	9.35003E-005	10	...........
	6669	333.5	2.89965E-001	-3.61645E-004	0.00000E+000	2.90000E-001	9.60678E-005	10	...........
	6673	333.7	2.49987E-001	-4.57708E-004	0.00000E+000	2.50000E-001	9.19998E-005	10	...........
	6677	333.9	2.09993E-001	-5.94310E-004	0.00000E+000	2.10000E-001	9.28667E-005	10	...........
	6681	334.1	1.70076E-001	-7.96165E-004	0.00000E+000	1.70000E-001	8.55978E-005	10	...........
	6685	334.3	1.30112E-001	-1.10216E-003	0.00000E+000	1.30000E-001	8.21967E-005	10	...........
	6689	334.5	9.00790E-002	-1.58981E-003	0.00000E+000	9.00000E-002	8.94990E-005	10	...........
	6693	334.7	5.01851E-002	-2.33526E-003	0.00000E+000	5.00000E-002	8.81319E-005	10	...........
	6697	334.9	1.01831E-002	-3.20772E-003	0.00000E+000	1.00000E-002	8.69982E-005	10	...........
	6701	335.1	-2.96898E-002	-3.57732E-003	0.00000E+000	-3.00000E-002	9.04993E-005	10	...........
	6705	335.3	-6.97367E-002	-2.73187E-003	0.00000E+000	-7.00000E-002	8.99325E-005	10	...........
	6709	335.5	-1.09694E-001	-1.39801E-003	0.00000E+000	-1.10000E-001	8.71649E-005	10	...........
	6713	335.7	-1.49700E-001	-6.10727E-004	0.00000E+000	-1.50000E-001	9.03659E-005	10	...........
	6717	335.9	-1.89669E-001	-2.63836E-004	0.00000E+000	-1.90000E-001	8.62980E-005	10	...........
	6721	336.1	-2.29663E-001	-1.46570E-004	0.00000E+000	-2.30000E-001	8.67314E-005	10	...........
	6725	336.3	-2.69605E-001	-1.27610E-004	0.00000E+000	-2.70000E-001	8.56311E-005	10	...........
	6729	336.5	-3.09588E-001	-1.45553E-004	0.00000E+000	-3.10000E-001	9.47340E-005	10	...........
	6733	336.7	-3.49545E-001	-2.16286E-004	0.00000E+000	-3.50000E-001	9.30001E-005	10	...........
	6737	336.9	-3.89513E-001	-3.90322E-004	0.00000E+000	-3.90000E-001	9.42338E-005	10	...........
	6741	337.1	-4.29450E-001	-9.00333E-004	0.00000E+000	-4.30000E-001	9.80017E-005	10	...........
	6745	337.3	-4.69435E-001	-1.04890E-003	0.00000E+000	-4.70000E-001	9.65346E-005	10	...........
	6749	337.5	-5.09407E-001	-9.19074E-004	0.00000E+000	-5.10000E-001	9.57677E-005	10	...........
	6753	337.7	-5.49365E-001	-1.22538E-003	0.00000E+000	-5.50000E-001	1.00736E-004	10	...........
	6757	337.9	-5.89307E-001	-2.09782E-003	0.00000E+000	-5.90000E-001	9.52342E-005	10	...........
	6761	338.1	-6.29321E-001	-2.08887E-003	0.00000E+000	-6.30000E-001	9.87353E-005	10	...........
	6765	338.3	-6.69280E-001	-2.30070E-003	0.00000E+000	-6.70000E-001	9.58677E-005	10	...........
	6768	338.45	-6.99121E-001	-3.00622E-003	0.00000E+000	-7.00000E-001	9.03659E-005	10	...........
CURVE21	TABLE
	Pt	T	Vf	Im	Vu	Sig	Ach	IERange	Over
	#	s	V vs. Ref.	A	V	V	V	#	bits
	6769	338.5	-6.89333E-001	-9.25615E-004	0.00000E+000	-6.90000E-001	9.04993E-005	10	...........
	6770	338.55	-6.79382E-001	1.55400E-004	0.00000E+000	-6.80000E-001	8.70649E-005	10	...........
	6771	338.6	-6.69381E-001	7.83401E-004	0.00000E+000	-6.70000E-001	9.27334E-005	10	...........
	6772	338.65	-6.59274E-001	1.12787E-003	0.00000E+000	-6.60000E-001	8.71983E-005	10	...........
	6773	338.7	-6.49320E-001	1.29988E-003	0.00000E+000	-6.50000E-001	9.71348E-005	10	...........
	6774	338.75	-6.39359E-001	1.39030E-003	0.00000E+000	-6.40000E-001	8.97991E-005	10	...........
	6775	338.8	-6.29426E-001	1.44605E-003	0.00000E+000	-6.30000E-001	9.31668E-005	10	...........
	6776	338.85	-6.19177E-001	1.49480E-003	0.00000E+000	-6.20000E-001	8.28636E-005	10	...........
	6777	338.9	-6.09371E-001	1.54814E-003	0.00000E+000	-6.10000E-001	9.24333E-005	10	...........
	6778	338.95	-5.99365E-001	1.61874E-003	0.00000E+000	-6.00000E-001	8.94657E-005	10	...........
	6779	339	-5.89386E-001	1.70915E-003	0.00000E+000	-5.90000E-001	9.61011E-005	10	...........
	6780	339.05	-5.79415E-001	1.81495E-003	0.00000E+000	-5.80000E-001	8.80986E-005	10	...........
	6781	339.1	-5.69400E-001	1.91815E-003	0.00000E+000	-5.70000E-001	9.22999E-005	10	...........
	6782	339.15	-5.59412E-001	1.95585E-003	0.00000E+000	-5.60000E-001	9.11995E-005	10	...........
	6783	339.2	-5.49468E-001	1.84185E-003	0.00000E+000	-5.50000E-001	9.45006E-005	10	...........
	6784	339.25	-5.39345E-001	1.60956E-003	0.00000E+000	-5.40000E-001	8.85320E-005	10	...........
	6785	339.3	-5.29429E-001	1.38594E-003	0.00000E+000	-5.30000E-001	9.49674E-005	10	...........
	6786	339.35	-5.19405E-001	1.24180E-003	0.00000E+000	-5.20000E-001	8.82653E-005	10	...........
	6787	339.4	-5.09486E-001	1.17318E-003	0.00000E+000	-5.10000E-001	1.00069E-004	10	...........
	6788	339.45	-4.99501E-001	1.16256E-003	0.00000E+000	-5.00000E-001	8.73983E-005	10	...........
	6789	339.5	-4.89430E-001	1.18665E-003	0.00000E+000	-4.90000E-001	9.53008E-005	10	...........
	6790	339.55	-4.79481E-001	1.20766E-003	0.00000E+000	-4.80000E-001	9.04993E-005	10	...........
	6791	339.6	-4.69540E-001	1.20984E-003	0.00000E+000	-4.70000E-001	9.81684E-005	10	...........
	6792	339.65	-4.59402E-001	1.22378E-003	0.00000E+000	-4.60000E-001	9.42338E-005	10	...........
	6793	339.7	-4.49503E-001	1.28448E-003	0.00000E+000	-4.50000E-001	9.83018E-005	10	...........
	6794	339.75	-4.39453E-001	1.38098E-003	0.00000E+000	-4.40000E-001	8.84987E-005	10	...........
	6795	339.8	-4.29545E-001	1.45958E-003	0.00000E+000	-4.30000E-001	9.54342E-005	10	...........
	6796	339.85	-4.19473E-001	1.42960E-003	0.00000E+000	-4.20000E-001	8.59312E-005	10	...........
	6797	339.9	-4.09524E-001	1.23425E-003	0.00000E+000	-4.10000E-001	8.84987E-005	10	...........
	6798	339.95	-3.99573E-001	9.42328E-004	0.00000E+000	-4.00000E-001	8.23300E-005	10	...........
	6799	340	-3.89620E-001	7.04772E-004	0.00000E+000	-3.90000E-001	8.62646E-005	10	...........
	6800	340.05	-3.79581E-001	5.65740E-004	0.00000E+000	-3.80000E-001	8.57978E-005	10	...........