File: 20190222 HUPD/CV_test_1.DTA
EXPLAIN
TAG	CV
TITLE	LABEL	CV	Test &Identifier
DATE	LABEL	2/22/2019	Date
TIME	LABEL	10:49:54	Time
NOTES	NOTES	2	&Notes...
	0.5 M H2SO4
	Pt-wire CE
PSTAT	PSTAT	REF600-16093	Potentiostat
VINIT	POTEN	0.00000E+000	T	Initial &E (V)
VLIMIT1	POTEN	7.00000E-001	F	Scan Limit &1 (V)
VLIMIT2	POTEN	-6.80000E-001	F	Scan Limit &2 (V)
VFINAL	POTEN	0.00000E+000	T	Final &E (V)
SCANRATE	QUANT	9.99998E+001	&Scan Rate (mV/s)
STEPSIZE	QUANT	1.00000E+001	St&ep Size (mV)
CYCLES	IQUANT	10	C&ycles (#)
IMODE	SELECTOR	1	I/E Range &Mode
IRANGE	QUANT	1.00000E+000	&Max Current (mA)
AREA	QUANT	1.00000E+000	Electrode &Area (cm^2)
ELECTRODETYPE	SELECTOR	0	Electrode Type
STRIPPING	TOGGLE	F	Used for Stripping
POLARITY	TOGGLE	F	Signal Polarity
CONDIT	TWOPARAM	F	1.50000E+001	0.00000E+000	Conditionin&g	Time(s)	E(V)
DELAY	TWOPARAM	T	5.00000E+000	0.00000E+000	Init. De&lay	Time(s)	Stab.(mV/s)
EQDELAY	QUANT	5.00000E+000	Equil. &Time (s)
IRCOMP	SELECTOR	0	IRCom&p
PFCOR	QUANT	0.00000E+000	PF Corr. (ohm)
SAMPLINGMODE	SELECTOR	2	Sampling &Mode
OCVCURVE	TABLE	20
	Pt	T	Vf	Vm	Ach	Over
	#	s	V vs. Ref.	V	V	bits
	0	0.25	1.21166E-001	1.21166E-001	5.76931E-005	...........
	1	0.5	1.21166E-001	1.21159E-001	6.67930E-005	...........
	2	0.75	1.21166E-001	1.21160E-001	6.53263E-005	...........
	3	1	1.21164E-001	1.21160E-001	6.37930E-005	...........
	4	1.25	1.21162E-001	1.21156E-001	6.11264E-005	...........
	5	1.5	1.21161E-001	1.21153E-001	6.74929E-005	...........
	6	1.75	1.21159E-001	1.21151E-001	6.59263E-005	...........
	7	2	1.21156E-001	1.21150E-001	6.63930E-005	...........
	8	2.25	1.21154E-001	1.21150E-001	6.79596E-005	...........
	9	2.5	1.21152E-001	1.21147E-001	6.88263E-005	...........
	10	2.75	1.21150E-001	1.21146E-001	6.47930E-005	...........
	11	3	1.21149E-001	1.21143E-001	6.47597E-005	...........
	12	3.25	1.21147E-001	1.21142E-001	6.45263E-005	...........
	13	3.5	1.21146E-001	1.21140E-001	6.46930E-005	...........
	14	3.75	1.21144E-001	1.21134E-001	6.07930E-005	...........
	15	4	1.21142E-001	1.21134E-001	6.27930E-005	...........
	16	4.25	1.21139E-001	1.21131E-001	6.38597E-005	...........
	17	4.5	1.21136E-001	1.21130E-001	6.14930E-005	...........
	18	4.75	1.21134E-001	1.21129E-001	6.00264E-005	...........
	19	5	1.21132E-001	1.21129E-001	6.01931E-005	...........
EOC	QUANT	0.1211317	Open Circuit (V)
PSTATMODEL	IQUANT	4	Pstat Model
PSTATSECTION	LABEL	REF600-16093	Pstat Section
PSTATSERIALNO	LABEL	16093	Pstat Serial Number
CTRLMODE	IQUANT	1	Control Mode
IESTAB	IQUANT	2	I/E Stability
CASPEED	IQUANT	2	Control Amp Speed
CONVENTION	IQUANT	1	Current Convention
ICHRANGE	IQUANT	2	Ich Range
ICHRANGEMODE	TOGGLE	F	Ich Auto Range
ICHOFFSETENABLE	TOGGLE	F	Ich Offset Enable
ICHOFFSET	QUANT	0	Ich Offset (V)
ICHFILTER	IQUANT	2	Ich Filter
VCHRANGE	IQUANT	2	Vch Range
VCHRANGEMODE	TOGGLE	F	Vch Auto Range
VCHOFFSETENABLE	TOGGLE	F	Vch Offset Enable
VCHOFFSET	QUANT	0	Vch Offset (V)
VCHFILTER	IQUANT	2	Vch Filter
ACHRANGE	IQUANT	2	Ach Range
ACHOFFSETENABLE	TOGGLE	F	Ach Offset Enable
ACHOFFSET	QUANT	0	Ach Offset (V)
ACHFILTER	IQUANT	1	Ach Filter
IERANGELOWERLIMIT	IQUANT	1	I/E Range Lower Limit
IERANGEMODE	TOGGLE	F	I/E AutoRange
IERANGE	IQUANT	9	I/E Range
POSFEEDENABLE	TOGGLE	F	Positive Feedback IR Comp
POSFEEDRESISTANCE	QUANT	0	Positive Feedback Resistance (ohm)
ACHSELECT	IQUANT	0	Ach Select
CABLEID	IQUANT	14	Cable ID
DCCALDATE	LABEL	2/18/2019	DC Calibration Date
ACCALDATE	LABEL	2/18/2019	AC Calibration Date
THERMOSELECT	IQUANT	1	Thermo Select
FRAMEWORKVERSION	QUANT	6.33	Framework Version
INSTRUMENTVERSION	LABEL	3.50	Instrument Version
CURVE1	TABLE
	Pt	T	Vf	Im	Vu	Sig	Ach	IERange	Over
	#	s	V vs. Ref.	A	V	V	V	#	bits
	0	0.1	1.21131E-001	-2.39347E-007	0.00000E+000	1.21150E-001	8.17113E-005	9	...........
	2	0.3	1.41090E-001	1.64200E-005	0.00000E+000	1.41150E-001	8.02944E-005	9	...........
	4	0.5	1.61100E-001	1.73385E-005	0.00000E+000	1.61150E-001	8.72121E-005	9	...........
	6	0.7	1.81095E-001	1.82145E-005	0.00000E+000	1.81150E-001	8.34782E-005	9	...........
	8	0.9	2.01081E-001	1.92907E-005	0.00000E+000	2.01150E-001	8.57786E-005	9	...........
	10	1.1	2.21062E-001	2.06892E-005	0.00000E+000	2.21150E-001	8.27781E-005	9	...........
	12	1.3	2.41008E-001	2.24753E-005	0.00000E+000	2.41150E-001	8.39950E-005	9	...........
	14	1.5	2.61038E-001	2.47730E-005	0.00000E+000	2.61150E-001	8.57619E-005	9	...........
	16	1.7	2.81031E-001	2.76927E-005	0.00000E+000	2.81150E-001	8.33949E-005	9	...........
	18	1.9	3.01001E-001	3.14718E-005	0.00000E+000	3.01150E-001	8.21447E-005	9	...........
	20	2.1	3.20887E-001	3.62928E-005	0.00000E+000	3.21150E-001	8.38783E-005	9	...........
	22	2.3	3.40956E-001	4.26584E-005	0.00000E+000	3.41150E-001	8.41617E-005	9	...........
	24	2.5	3.60920E-001	5.09327E-005	0.00000E+000	3.61150E-001	8.12779E-005	9	...........
	26	2.7	3.80939E-001	6.16156E-005	0.00000E+000	3.81150E-001	8.14112E-005	9	...........
	28	2.9	4.00804E-001	7.54120E-005	0.00000E+000	4.01150E-001	8.11612E-005	9	...........
	30	3.1	4.20876E-001	9.32190E-005	0.00000E+000	4.21150E-001	7.71106E-005	9	...........
	32	3.3	4.40807E-001	1.16421E-004	0.00000E+000	4.41150E-001	7.72606E-005	9	...........
	34	3.5	4.60874E-001	1.46347E-004	0.00000E+000	4.61150E-001	8.01444E-005	9	...........
	36	3.7	4.80744E-001	1.84575E-004	0.00000E+000	4.81150E-001	7.88775E-005	9	...........
	38	3.9	5.00868E-001	2.31957E-004	0.00000E+000	5.01150E-001	7.82608E-005	9	...........
	40	4.1	5.20744E-001	2.87319E-004	0.00000E+000	5.21150E-001	8.03944E-005	9	...........
	42	4.3	5.40862E-001	3.47601E-004	0.00000E+000	5.41150E-001	7.86942E-005	9	...........
	44	4.5	5.60685E-001	4.07694E-004	0.00000E+000	5.61150E-001	7.73106E-005	9	...........
	46	4.7	5.80827E-001	4.62804E-004	0.00000E+000	5.81150E-001	7.41601E-005	9	...........
	48	4.9	6.00683E-001	5.10406E-004	0.00000E+000	6.01150E-001	7.31433E-005	9	...........
	50	5.1	6.20797E-001	5.49855E-004	0.00000E+000	6.21150E-001	7.87109E-005	9	...........
	52	5.3	6.40649E-001	5.82026E-004	0.00000E+000	6.41150E-001	7.82108E-005	9	...........
	54	5.5	6.60843E-001	6.08123E-004	0.00000E+000	6.61150E-001	7.55437E-005	9	...........
	56	5.7	6.80646E-001	6.30009E-004	0.00000E+000	6.81150E-001	7.78607E-005	9	...........
	58	5.9	7.00663E-001	6.48644E-004	0.00000E+000	7.01150E-001	7.69939E-005	9	...........
	60	6.1	6.80700E-001	2.45188E-004	0.00000E+000	6.81150E-001	7.98443E-005	9	...........
	62	6.3	6.60896E-001	1.16396E-004	0.00000E+000	6.61150E-001	7.95110E-005	9	...........
	64	6.5	6.40701E-001	5.42982E-005	0.00000E+000	6.41150E-001	8.01277E-005	9	...........
	66	6.7	6.20847E-001	1.96490E-005	0.00000E+000	6.21150E-001	7.96110E-005	9	...........
	68	6.9	6.00753E-001	-1.72788E-006	0.00000E+000	6.01150E-001	7.55937E-005	9	...........
	70	7.1	5.80889E-001	-1.63324E-005	0.00000E+000	5.81150E-001	7.62271E-005	9	...........
	72	7.3	5.60738E-001	-2.72387E-005	0.00000E+000	5.61150E-001	8.08278E-005	9	...........
	74	7.5	5.40902E-001	-3.62256E-005	0.00000E+000	5.41150E-001	7.96943E-005	9	...........
	76	7.7	5.20784E-001	-4.41507E-005	0.00000E+000	5.21150E-001	7.72606E-005	9	...........
	78	7.9	5.00893E-001	-5.14524E-005	0.00000E+000	5.01150E-001	7.61438E-005	9	...........
	80	8.1	4.80789E-001	-5.84060E-005	0.00000E+000	4.81150E-001	8.08945E-005	9	...........
	82	8.3	4.60912E-001	-6.53196E-005	0.00000E+000	4.61150E-001	8.26281E-005	9	...........
	84	8.5	4.40830E-001	-7.21761E-005	0.00000E+000	4.41150E-001	7.90776E-005	9	...........
	86	8.7	4.20872E-001	-7.91594E-005	0.00000E+000	4.21150E-001	8.10112E-005	9	...........
	88	8.9	4.00847E-001	-8.62025E-005	0.00000E+000	4.01150E-001	8.32449E-005	9	...........
	90	9.1	3.80973E-001	-9.35078E-005	0.00000E+000	3.81150E-001	8.24447E-005	9	...........
	92	9.3	3.60928E-001	-1.01119E-004	0.00000E+000	3.61150E-001	8.36116E-005	9	...........
	94	9.5	3.40982E-001	-1.08941E-004	0.00000E+000	3.41150E-001	8.28115E-005	9	...........
	96	9.7	3.20939E-001	-1.17152E-004	0.00000E+000	3.21150E-001	8.24781E-005	9	...........
	98	9.9	3.01054E-001	-1.25601E-004	0.00000E+000	3.01150E-001	8.33115E-005	9	...........
	100	10.1	2.81049E-001	-1.34423E-004	0.00000E+000	2.81150E-001	8.18280E-005	9	...........
	102	10.3	2.61071E-001	-1.43599E-004	0.00000E+000	2.61150E-001	8.50451E-005	9	...........
	104	10.5	2.41024E-001	-1.53039E-004	0.00000E+000	2.41150E-001	8.71455E-005	9	...........
	106	10.7	2.21118E-001	-1.62832E-004	0.00000E+000	2.21150E-001	8.36949E-005	9	...........
	108	10.9	2.01101E-001	-1.72725E-004	0.00000E+000	2.01150E-001	8.44784E-005	9	...........
	110	11.1	1.81142E-001	-1.82662E-004	0.00000E+000	1.81150E-001	8.25114E-005	9	...........
	112	11.3	1.61127E-001	-1.92634E-004	0.00000E+000	1.61150E-001	8.49785E-005	9	...........
	114	11.5	1.41107E-001	-2.02360E-004	0.00000E+000	1.41150E-001	8.70788E-005	9	...........
	116	11.7	1.21162E-001	-2.11360E-004	0.00000E+000	1.21150E-001	8.45784E-005	9	...........
	118	11.9	1.01231E-001	-2.19222E-004	0.00000E+000	1.01150E-001	8.07945E-005	9	...........
	120	12.1	8.11766E-002	-2.25604E-004	0.00000E+000	8.11500E-002	7.96943E-005	9	...........
	122	12.3	6.12293E-002	-2.30329E-004	0.00000E+000	6.11500E-002	7.75607E-005	9	...........
	124	12.5	4.12000E-002	-2.33651E-004	0.00000E+000	4.11500E-002	8.28781E-005	9	...........
	126	12.7	2.12828E-002	-2.36050E-004	0.00000E+000	2.11500E-002	7.88609E-005	9	...........
	128	12.9	1.21933E-003	-2.38267E-004	0.00000E+000	1.15000E-003	7.79774E-005	9	...........
	130	13.1	-1.86956E-002	-2.41346E-004	0.00000E+000	-1.88500E-002	8.17113E-005	9	...........
	132	13.3	-3.86918E-002	-2.46286E-004	0.00000E+000	-3.88500E-002	7.58437E-005	9	...........
	134	13.5	-5.86713E-002	-2.54069E-004	0.00000E+000	-5.88500E-002	7.86942E-005	9	...........
	136	13.7	-7.86383E-002	-2.65655E-004	0.00000E+000	-7.88500E-002	8.31282E-005	9	...........
	138	13.9	-9.86297E-002	-2.82055E-004	0.00000E+000	-9.88500E-002	8.13446E-005	9	...........
	140	14.1	-1.18615E-001	-3.04351E-004	0.00000E+000	-1.18850E-001	7.96443E-005	9	...........
	142	14.3	-1.38572E-001	-3.33735E-004	0.00000E+000	-1.38850E-001	8.25614E-005	9	...........
	144	14.5	-1.58440E-001	-3.71462E-004	0.00000E+000	-1.58850E-001	8.52785E-005	9	...........
	146	14.7	-1.78556E-001	-4.17969E-004	0.00000E+000	-1.78850E-001	8.39283E-005	9	...........
	148	14.9	-1.98532E-001	-4.72091E-004	0.00000E+000	-1.98850E-001	8.38950E-005	9	...........
	150	15.1	-2.18542E-001	-5.29332E-004	0.00000E+000	-2.18850E-001	8.18613E-005	9	...........
	152	15.3	-2.38418E-001	-5.82241E-004	0.00000E+000	-2.38850E-001	7.97277E-005	9	...........
	154	15.5	-2.58485E-001	-6.22653E-004	0.00000E+000	-2.58850E-001	8.10612E-005	9	...........
	156	15.7	-2.78350E-001	-6.44036E-004	0.00000E+000	-2.78850E-001	8.35449E-005	9	...........
	158	15.9	-2.98479E-001	-6.44503E-004	0.00000E+000	-2.98850E-001	8.25281E-005	9	...........
	160	16.1	-3.18339E-001	-6.27954E-004	0.00000E+000	-3.18850E-001	8.09945E-005	9	...........
	162	16.3	-3.38462E-001	-6.01697E-004	0.00000E+000	-3.38850E-001	8.43450E-005	9	...........
	164	16.5	-3.58294E-001	-5.74242E-004	0.00000E+000	-3.58850E-001	8.15279E-005	9	...........
	166	16.7	-3.78434E-001	-5.52463E-004	0.00000E+000	-3.78850E-001	8.16613E-005	9	...........
	168	16.9	-3.98396E-001	-5.41062E-004	0.00000E+000	-3.98850E-001	7.73106E-005	9	...........
	170	17.1	-4.18425E-001	-5.42587E-004	0.00000E+000	-4.18850E-001	8.25447E-005	9	...........
	172	17.3	-4.38276E-001	-5.58502E-004	0.00000E+000	-4.38850E-001	8.01611E-005	9	...........
	174	17.5	-4.58355E-001	-5.89981E-004	0.00000E+000	-4.58850E-001	7.65938E-005	9	...........
	176	17.7	-4.78294E-001	-6.39407E-004	0.00000E+000	-4.78850E-001	7.91609E-005	9	...........
	178	17.9	-4.98364E-001	-7.11647E-004	0.00000E+000	-4.98850E-001	7.68105E-005	9	...........
	180	18.1	-5.18235E-001	-8.10492E-004	0.00000E+000	-5.18850E-001	7.79274E-005	9	...........
	182	18.3	-5.38240E-001	-9.39446E-004	0.00000E+000	-5.38850E-001	7.80274E-005	9	...........
	184	18.5	-5.58211E-001	-1.09319E-003	0.00000E+000	-5.58850E-001	8.02777E-005	9	...........
	186	18.7	-5.78239E-001	-1.26239E-003	0.00000E+000	-5.78850E-001	8.22614E-005	9	...........
	188	18.9	-5.98150E-001	-1.44006E-003	0.00000E+000	-5.98850E-001	8.09112E-005	9	...........
	190	19.1	-6.18133E-001	-1.62656E-003	0.00000E+000	-6.18850E-001	8.25614E-005	9	...........
	192	19.3	-6.38091E-001	-1.82006E-003	0.00000E+000	-6.38850E-001	8.43950E-005	9	...........
	194	19.5	-6.58108E-001	-2.00878E-003	0.00000E+000	-6.58850E-001	8.27948E-005	9	...........
	196	19.7	-6.78085E-001	-2.24446E-003	0.00000E+000	-6.78850E-001	8.36783E-005	9	...........
CURVE2	TABLE
	Pt	T	Vf	Im	Vu	Sig	Ach	IERange	Over
	#	s	V vs. Ref.	A	V	V	V	#	bits
	197	19.8	-6.69355E-001	-9.15395E-004	0.00000E+000	-6.70000E-001	8.50785E-005	9	...........
	200	20.1	-6.39421E-001	1.90977E-004	0.00000E+000	-6.40000E-001	7.87775E-005	9	...........
	203	20.4	-6.09457E-001	4.39934E-004	0.00000E+000	-6.10000E-001	8.54785E-005	9	...........
	206	20.7	-5.79508E-001	5.29673E-004	0.00000E+000	-5.80000E-001	7.62938E-005	9	...........
	209	21	-5.49555E-001	5.17082E-004	0.00000E+000	-5.50000E-001	8.10279E-005	9	...........
	212	21.3	-5.19506E-001	4.67576E-004	0.00000E+000	-5.20000E-001	7.34267E-005	9	...........
	215	21.6	-4.89509E-001	4.47291E-004	0.00000E+000	-4.90000E-001	7.75440E-005	9	...........
	218	21.9	-4.59561E-001	4.21043E-004	0.00000E+000	-4.60000E-001	7.11264E-005	9	...........
	221	22.2	-4.29618E-001	3.60333E-004	0.00000E+000	-4.30000E-001	7.29600E-005	9	...........
	224	22.5	-3.99625E-001	2.45335E-004	0.00000E+000	-4.00000E-001	7.59938E-005	9	...........
	227	22.8	-3.69531E-001	1.65343E-004	0.00000E+000	-3.70000E-001	7.53937E-005	9	...........
	230	23.1	-3.39634E-001	1.23703E-004	0.00000E+000	-3.40000E-001	7.84275E-005	9	...........
	233	23.4	-3.09705E-001	1.06472E-004	0.00000E+000	-3.10000E-001	7.85275E-005	9	...........
	236	23.7	-2.79681E-001	1.09208E-004	0.00000E+000	-2.80000E-001	8.24781E-005	9	...........
	239	24	-2.49626E-001	1.24689E-004	0.00000E+000	-2.50000E-001	8.19280E-005	9	...........
	242	24.3	-2.19782E-001	1.46678E-004	0.00000E+000	-2.20000E-001	8.39616E-005	9	...........
	245	24.6	-1.89762E-001	1.69260E-004	0.00000E+000	-1.90000E-001	7.64272E-005	9	...........
	248	24.9	-1.59762E-001	1.86501E-004	0.00000E+000	-1.60000E-001	7.83441E-005	9	...........
	251	25.2	-1.29726E-001	1.94400E-004	0.00000E+000	-1.30000E-001	7.16764E-005	9	...........
	254	25.5	-9.98649E-002	1.92582E-004	0.00000E+000	-1.00000E-001	7.82608E-005	9	...........
	257	25.8	-6.98813E-002	1.83336E-004	0.00000E+000	-7.00000E-002	7.30100E-005	9	...........
	260	26.1	-3.99057E-002	1.70460E-004	0.00000E+000	-4.00000E-002	7.84608E-005	9	...........
	263	26.4	-9.81974E-003	1.58146E-004	0.00000E+000	-1.00000E-002	7.10430E-005	9	...........
	266	26.7	1.99197E-002	1.49891E-004	0.00000E+000	2.00000E-002	7.65272E-005	9	...........
	269	27	5.00409E-002	1.47554E-004	0.00000E+000	5.00000E-002	7.30600E-005	9	...........
	272	27.3	8.00697E-002	1.51617E-004	0.00000E+000	8.00000E-002	7.88275E-005	9	...........
	275	27.6	1.09964E-001	1.61812E-004	0.00000E+000	1.10000E-001	8.03278E-005	9	...........
	278	27.9	1.39890E-001	1.78277E-004	0.00000E+000	1.40000E-001	7.67439E-005	9	...........
	281	28.2	1.69949E-001	2.03587E-004	0.00000E+000	1.70000E-001	8.26781E-005	9	...........
	284	28.5	2.00064E-001	2.40078E-004	0.00000E+000	2.00000E-001	7.71273E-005	9	...........
	287	28.8	2.29880E-001	2.86668E-004	0.00000E+000	2.30000E-001	8.36616E-005	9	...........
	290	29.1	2.59844E-001	3.39656E-004	0.00000E+000	2.60000E-001	8.00444E-005	9	...........
	293	29.4	2.89835E-001	3.92947E-004	0.00000E+000	2.90000E-001	8.24114E-005	9	...........
	296	29.7	3.19768E-001	4.41930E-004	0.00000E+000	3.20000E-001	7.52103E-005	9	...........
	299	30	3.49695E-001	4.85680E-004	0.00000E+000	3.50000E-001	7.93776E-005	9	...........
	302	30.3	3.79761E-001	5.24943E-004	0.00000E+000	3.80000E-001	7.34934E-005	9	...........
	305	30.6	4.09699E-001	5.58992E-004	0.00000E+000	4.10000E-001	8.02777E-005	9	...........
	308	30.9	4.39666E-001	5.91783E-004	0.00000E+000	4.40000E-001	7.00262E-005	9	...........
	311	31.2	4.69613E-001	6.34689E-004	0.00000E+000	4.70000E-001	7.57604E-005	9	...........
	314	31.5	4.99585E-001	6.90390E-004	0.00000E+000	5.00000E-001	7.24766E-005	9	...........
	317	31.8	5.29659E-001	7.43684E-004	0.00000E+000	5.30000E-001	7.59104E-005	9	...........
	320	32.1	5.59572E-001	7.80610E-004	0.00000E+000	5.60000E-001	7.46269E-005	9	...........
	323	32.4	5.89481E-001	7.98554E-004	0.00000E+000	5.90000E-001	7.73773E-005	9	...........
	326	32.7	6.19515E-001	8.03132E-004	0.00000E+000	6.20000E-001	7.79774E-005	9	...........
	329	33	6.49567E-001	8.00067E-004	0.00000E+000	6.50000E-001	7.75773E-005	9	...........
	332	33.3	6.79439E-001	7.92359E-004	0.00000E+000	6.80000E-001	8.04778E-005	9	...........
	335	33.6	6.89688E-001	4.76234E-004	0.00000E+000	6.90000E-001	7.55103E-005	9	...........
	338	33.9	6.59600E-001	1.89349E-004	0.00000E+000	6.60000E-001	7.20098E-005	9	...........
	341	34.2	6.29516E-001	8.78121E-005	0.00000E+000	6.30000E-001	7.61604E-005	9	...........
	344	34.5	5.99602E-001	3.80093E-005	0.00000E+000	6.00000E-001	7.23099E-005	9	...........
	347	34.8	5.69710E-001	7.66320E-006	0.00000E+000	5.70000E-001	7.65772E-005	9	...........
	350	35.1	5.39682E-001	-1.43041E-005	0.00000E+000	5.40000E-001	7.64105E-005	9	...........
	353	35.4	5.09630E-001	-3.28249E-005	0.00000E+000	5.10000E-001	7.65605E-005	9	...........
[...]
	2648	264.9	-3.59544E-001	-8.06485E-005	0.00000E+000	-3.60000E-001	7.63438E-005	9	...........
	2651	265.2	-3.89621E-001	-1.60763E-004	0.00000E+000	-3.90000E-001	7.69439E-005	9	...........
	2654	265.5	-4.19486E-001	-3.35055E-004	0.00000E+000	-4.20000E-001	7.36934E-005	9	...........
	2657	265.8	-4.49488E-001	-4.93713E-004	0.00000E+000	-4.50000E-001	7.19265E-005	9	...........
	2660	266.1	-4.79467E-001	-4.51417E-004	0.00000E+000	-4.80000E-001	7.08430E-005	9	...........
	2663	266.4	-5.09462E-001	-4.60217E-004	0.00000E+000	-5.10000E-001	7.23265E-005	9	...........
	2666	266.7	-5.39339E-001	-5.71015E-004	0.00000E+000	-5.40000E-001	7.26266E-005	9	...........
	2669	267	-5.69335E-001	-8.66900E-004	0.00000E+000	-5.70000E-001	7.97110E-005	9	...........
	2672	267.3	-5.99313E-001	-1.08581E-003	0.00000E+000	-6.00000E-001	7.77274E-005	9	...........
	2675	267.6	-6.29344E-001	-1.11302E-003	0.00000E+000	-6.30000E-001	8.08612E-005	9	...........
	2678	267.9	-6.59201E-001	-1.25980E-003	0.00000E+000	-6.60000E-001	7.43602E-005	9	...........
	2680	268.1	-6.79289E-001	-1.46578E-003	0.00000E+000	-6.80000E-001	7.53603E-005	9	...........
CURVE11	TABLE
	Pt	T	Vf	Im	Vu	Sig	Ach	IERange	Over
	#	s	V vs. Ref.	A	V	V	V	#	bits
	2681	268.2	-6.69391E-001	-5.26323E-005	0.00000E+000	-6.70000E-001	8.06778E-005	9	...........
	2682	268.3	-6.59375E-001	3.52577E-004	0.00000E+000	-6.60000E-001	7.49769E-005	9	...........
	2683	268.4	-6.49376E-001	5.26208E-004	0.00000E+000	-6.50000E-001	8.01944E-005	9	...........
	2684	268.5	-6.39413E-001	6.10771E-004	0.00000E+000	-6.40000E-001	7.32267E-005	9	...........
	2685	268.6	-6.29463E-001	6.58978E-004	0.00000E+000	-6.30000E-001	7.38101E-005	9	...........
	2686	268.7	-6.19295E-001	6.96004E-004	0.00000E+000	-6.20000E-001	6.86927E-005	9	...........
	2687	268.8	-6.09455E-001	7.31816E-004	0.00000E+000	-6.10000E-001	7.20265E-005	9	...........
	2688	268.9	-5.99450E-001	7.72765E-004	0.00000E+000	-6.00000E-001	6.97261E-005	9	...........
	2689	269	-5.89483E-001	8.19720E-004	0.00000E+000	-5.90000E-001	7.70273E-005	9	...........
	2690	269.1	-5.79514E-001	8.67874E-004	0.00000E+000	-5.80000E-001	6.96761E-005	9	...........
	2691	269.2	-5.69476E-001	8.96081E-004	0.00000E+000	-5.70000E-001	7.68272E-005	9	...........
	2692	269.3	-5.59497E-001	8.65258E-004	0.00000E+000	-5.60000E-001	7.07430E-005	9	...........
	2693	269.4	-5.49565E-001	7.77589E-004	0.00000E+000	-5.50000E-001	7.38268E-005	9	...........
	2694	269.5	-5.39482E-001	6.83904E-004	0.00000E+000	-5.40000E-001	6.86260E-005	9	...........
	2695	269.6	-5.29500E-001	6.12672E-004	0.00000E+000	-5.30000E-001	7.62938E-005	9	...........
	2696	269.7	-5.19495E-001	5.67687E-004	0.00000E+000	-5.20000E-001	6.82759E-005	9	...........
	2697	269.8	-5.09576E-001	5.44261E-004	0.00000E+000	-5.10000E-001	7.62105E-005	9	...........
	2698	269.9	-4.99581E-001	5.37297E-004	0.00000E+000	-5.00000E-001	7.35434E-005	9	...........
	2699	270	-4.89503E-001	5.36754E-004	0.00000E+000	-4.90000E-001	7.48269E-005	9	...........
	2700	270.1	-4.79549E-001	5.33766E-004	0.00000E+000	-4.80000E-001	6.94261E-005	9	...........
	2701	270.2	-4.69654E-001	5.32835E-004	0.00000E+000	-4.70000E-001	7.48603E-005	9	...........
	2702	270.3	-4.59558E-001	5.49711E-004	0.00000E+000	-4.60000E-001	7.05763E-005	9	...........
	2703	270.4	-4.49577E-001	5.88345E-004	0.00000E+000	-4.50000E-001	7.23932E-005	9	...........
	2704	270.5	-4.39541E-001	6.36628E-004	0.00000E+000	-4.40000E-001	7.08430E-005	9	...........
	2705	270.6	-4.29626E-001	6.62419E-004	0.00000E+000	-4.30000E-001	7.35601E-005	9	...........
	2706	270.7	-4.19612E-001	6.21745E-004	0.00000E+000	-4.20000E-001	7.01262E-005	9	...........
	2707	270.8	-4.09524E-001	5.22316E-004	0.00000E+000	-4.10000E-001	7.41768E-005	9	...........
	2708	270.9	-3.99631E-001	4.16746E-004	0.00000E+000	-4.00000E-001	7.39601E-005	9	...........
	2709	271	-3.89686E-001	3.36681E-004	0.00000E+000	-3.90000E-001	7.51936E-005	9	...........
	2710	271.1	-3.79659E-001	2.84644E-004	0.00000E+000	-3.80000E-001	7.44769E-005	9	...........
	2711	271.2	-3.69535E-001	2.53194E-004	0.00000E+000	-3.70000E-001	7.46102E-005	9	...........
	2712	271.3	-3.59595E-001	2.35145E-004	0.00000E+000	-3.60000E-001	7.52103E-005	9	...........
	2713	271.4	-3.49667E-001	2.24447E-004	0.00000E+000	-3.50000E-001	7.24932E-005	9	...........
	2714	271.5	-3.39624E-001	2.17879E-004	0.00000E+000	-3.40000E-001	7.41935E-005	9	...........
	2715	271.6	-3.29534E-001	2.13679E-004	0.00000E+000	-3.30000E-001	7.34100E-005	9	...........
	2716	271.7	-3.19680E-001	2.11565E-004	0.00000E+000	-3.20000E-001	7.68439E-005	9	...........
	2717	271.8	-3.09701E-001	2.12145E-004	0.00000E+000	-3.10000E-001	7.54603E-005	9	...........
	2718	271.9	-2.99707E-001	2.16345E-004	0.00000E+000	-3.00000E-001	7.84108E-005	9	...........
	2719	272	-2.89558E-001	2.24351E-004	0.00000E+000	-2.90000E-001	7.36101E-005	9	...........
	2720	272.1	-2.79678E-001	2.36408E-004	0.00000E+000	-2.80000E-001	7.61604E-005	9	...........
	2721	272.2	-2.69750E-001	2.51918E-004	0.00000E+000	-2.70000E-001	7.62605E-005	9	...........
	2722	272.3	-2.59711E-001	2.70818E-004	0.00000E+000	-2.60000E-001	7.97443E-005	9	...........
	2723	272.4	-2.49636E-001	2.92571E-004	0.00000E+000	-2.50000E-001	7.60104E-005	9	...........
	2724	272.5	-2.39674E-001	3.16796E-004	0.00000E+000	-2.40000E-001	8.06778E-005	9	...........
	2725	272.6	-2.29734E-001	3.42926E-004	0.00000E+000	-2.30000E-001	7.84941E-005	9	...........
	2726	272.7	-2.19793E-001	3.70206E-004	0.00000E+000	-2.20000E-001	8.53452E-005	9	...........
	2727	272.8	-2.09591E-001	3.97992E-004	0.00000E+000	-2.10000E-001	7.63938E-005	9	...........
	2728	272.9	-1.99756E-001	4.25337E-004	0.00000E+000	-2.00000E-001	8.31448E-005	9	...........
	2729	273	-1.89752E-001	4.51257E-004	0.00000E+000	-1.90000E-001	7.79774E-005	9	...........
	2730	273.1	-1.79757E-001	4.74926E-004	0.00000E+000	-1.80000E-001	8.14946E-005	9	...........
	2731	273.2	-1.69796E-001	4.95444E-004	0.00000E+000	-1.70000E-001	7.67272E-005	9	...........
	2732	273.3	-1.59767E-001	5.12249E-004	0.00000E+000	-1.60000E-001	7.83275E-005	9	...........
	2733	273.4	-1.49778E-001	5.24852E-004	0.00000E+000	-1.50000E-001	7.43435E-005	9	...........
	2734	273.5	-1.39831E-001	5.33161E-004	0.00000E+000	-1.40000E-001	8.02777E-005	9	...........
	2735	273.6	-1.29724E-001	5.37080E-004	0.00000E+000	-1.30000E-001	7.18431E-005	9	...........
	2736	273.7	-1.19812E-001	5.36871E-004	0.00000E+000	-1.20000E-001	8.06945E-005	9	...........
	2737	273.8	-1.09797E-001	5.32955E-004	0.00000E+000	-1.10000E-001	7.35434E-005	9	...........
	2738	273.9	-9.98550E-002	5.25836E-004	0.00000E+000	-1.00000E-001	7.96110E-005	9	...........
	2739	274	-8.98769E-002	5.15795E-004	0.00000E+000	-9.00000E-002	7.48936E-005	9	...........
	2740	274.1	-7.98276E-002	5.03532E-004	0.00000E+000	-8.00000E-002	8.19780E-005	9	...........
	2741	274.2	-6.98700E-002	4.89413E-004	0.00000E+000	-7.00000E-002	7.60438E-005	9	...........
	2742	274.3	-5.99164E-002	4.73848E-004	0.00000E+000	-6.00000E-002	7.89942E-005	9	...........
	2743	274.4	-4.97959E-002	4.57266E-004	0.00000E+000	-5.00000E-002	7.47602E-005	9	...........
	2744	274.5	-3.98956E-002	4.39940E-004	0.00000E+000	-4.00000E-002	8.13279E-005	9	...........
	2745	274.6	-2.98538E-002	4.22223E-004	0.00000E+000	-3.00000E-002	7.58604E-005	9	...........
	2746	274.7	-1.99301E-002	4.04507E-004	0.00000E+000	-2.00000E-002	7.59771E-005	9	...........
	2747	274.8	-9.86182E-003	3.87016E-004	0.00000E+000	-1.00000E-002	7.17431E-005	9	...........
	2748	274.9	7.95235E-005	3.70099E-004	0.00000E+000	9.31323E-010	7.45435E-005	9	...........
	2749	275	1.00191E-002	3.54060E-004	0.00000E+000	1.00000E-002	7.42102E-005	9	...........
	2750	275.1	1.99288E-002	3.39353E-004	0.00000E+000	2.00000E-002	7.56937E-005	9	...........
	2751	275.2	3.00095E-002	3.26212E-004	0.00000E+000	3.00000E-002	7.19098E-005	9	...........
	2752	275.3	4.00753E-002	3.14761E-004	0.00000E+000	4.00000E-002	6.94428E-005	9	...........
	2753	275.4	5.00408E-002	3.05338E-004	0.00000E+000	5.00000E-002	7.05929E-005	9	...........
	2754	275.5	5.99684E-002	2.97848E-004	0.00000E+000	6.00000E-002	7.64938E-005	9	...........
	2755	275.6	7.00227E-002	2.92501E-004	0.00000E+000	7.00000E-002	7.29766E-005	9	...........
	2756	275.7	8.00705E-002	2.89178E-004	0.00000E+000	8.00000E-002	7.34600E-005	9	...........
	2757	275.8	8.99545E-002	2.87939E-004	0.00000E+000	9.00000E-002	7.39601E-005	9	...........
	2758	275.9	9.98970E-002	2.89053E-004	0.00000E+000	1.00000E-001	7.71939E-005	9	...........
	2759	276	1.09961E-001	2.92267E-004	0.00000E+000	1.10000E-001	7.82608E-005	9	...........
	2760	276.1	1.20066E-001	2.98291E-004	0.00000E+000	1.20000E-001	7.57604E-005	9	...........