File: 20190222 HUPD/CV_test_3.DTA
EXPLAIN
TAG	CV
TITLE	LABEL	CV	Test &Identifier
DATE	LABEL	2/22/2019	Date
TIME	LABEL	11:02:58	Time
NOTES	NOTES	3	&Notes...
	0.5 M H2SO4
	Pt-wire CE
	byt CE/WE
PSTAT	PSTAT	REF600-16093	Potentiostat
VINIT	POTEN	0.00000E+000	T	Initial &E (V)
VLIMIT1	POTEN	9.00000E-001	F	Scan Limit &1 (V)
VLIMIT2	POTEN	-6.95000E-001	F	Scan Limit &2 (V)
VFINAL	POTEN	0.00000E+000	T	Final &E (V)
SCANRATE	QUANT	2.00000E+002	&Scan Rate (mV/s)
STEPSIZE	QUANT	1.00000E+001	St&ep Size (mV)
CYCLES	IQUANT	10	C&ycles (#)
IMODE	SELECTOR	1	I/E Range &Mode
IRANGE	QUANT	1.00000E+001	&Max Current (mA)
AREA	QUANT	1.00000E+000	Electrode &Area (cm^2)
ELECTRODETYPE	SELECTOR	0	Electrode Type
STRIPPING	TOGGLE	F	Used for Stripping
POLARITY	TOGGLE	F	Signal Polarity
CONDIT	TWOPARAM	F	1.50000E+001	0.00000E+000	Conditionin&g	Time(s)	E(V)
DELAY	TWOPARAM	T	5.00000E+000	0.00000E+000	Init. De&lay	Time(s)	Stab.(mV/s)
EQDELAY	QUANT	5.00000E+000	Equil. &Time (s)
IRCOMP	SELECTOR	0	IRCom&p
PFCOR	QUANT	0.00000E+000	PF Corr. (ohm)
SAMPLINGMODE	SELECTOR	2	Sampling &Mode
OCVCURVE	TABLE	20
	Pt	T	Vf	Vm	Ach	Over
	#	s	V vs. Ref.	V	V	bits
	0	0.25	-2.01629E-001	-2.01629E-001	6.41597E-005	...........
	1	0.5	-2.01624E-001	-2.01407E-001	6.57263E-005	...........
	2	0.75	-2.01603E-001	-2.01454E-001	7.37595E-005	...........
	3	1	-2.01555E-001	-2.01256E-001	7.84261E-005	...........
	4	1.25	-2.01490E-001	-2.01537E-001	6.74596E-005	...........
	5	1.5	-2.01425E-001	-2.00844E-001	7.06596E-005	...........
	6	1.75	-2.01341E-001	-2.00562E-001	6.96929E-005	...........
	7	2	-2.01203E-001	-2.01220E-001	6.56263E-005	...........
	8	2.25	-2.01062E-001	-2.01721E-001	6.80596E-005	...........
	9	2.5	-2.01047E-001	-2.01538E-001	6.88929E-005	...........
	10	2.75	-2.01190E-001	-2.01750E-001	6.84929E-005	...........
	11	3	-2.01381E-001	-2.00997E-001	6.58596E-005	...........
	12	3.25	-2.01479E-001	-2.01075E-001	6.61930E-005	...........
	13	3.5	-2.01427E-001	-2.00959E-001	6.77929E-005	...........
	14	3.75	-2.01282E-001	-2.01133E-001	6.61263E-005	...........
	15	4	-2.01137E-001	-2.00582E-001	6.44930E-005	...........
	16	4.25	-2.01008E-001	-2.00080E-001	7.06929E-005	...........
	17	4.5	-2.00833E-001	-1.99993E-001	6.77263E-005	...........
	18	4.75	-2.00574E-001	-1.99556E-001	6.80596E-005	...........
	19	5	-2.00238E-001	-1.98019E-001	6.70930E-005	...........
EOC	QUANT	-0.2002385	Open Circuit (V)
PSTATMODEL	IQUANT	4	Pstat Model
PSTATSECTION	LABEL	REF600-16093	Pstat Section
PSTATSERIALNO	LABEL	16093	Pstat Serial Number
CTRLMODE	IQUANT	1	Control Mode
IESTAB	IQUANT	2	I/E Stability
CASPEED	IQUANT	2	Control Amp Speed
CONVENTION	IQUANT	1	Current Convention
ICHRANGE	IQUANT	2	Ich Range
ICHRANGEMODE	TOGGLE	F	Ich Auto Range
ICHOFFSETENABLE	TOGGLE	F	Ich Offset Enable
ICHOFFSET	QUANT	0	Ich Offset (V)
ICHFILTER	IQUANT	2	Ich Filter
VCHRANGE	IQUANT	2	Vch Range
VCHRANGEMODE	TOGGLE	F	Vch Auto Range
VCHOFFSETENABLE	TOGGLE	F	Vch Offset Enable
VCHOFFSET	QUANT	0	Vch Offset (V)
VCHFILTER	IQUANT	2	Vch Filter
ACHRANGE	IQUANT	2	Ach Range
ACHOFFSETENABLE	TOGGLE	F	Ach Offset Enable
ACHOFFSET	QUANT	0	Ach Offset (V)
ACHFILTER	IQUANT	1	Ach Filter
IERANGELOWERLIMIT	IQUANT	1	I/E Range Lower Limit
IERANGEMODE	TOGGLE	F	I/E AutoRange
IERANGE	IQUANT	10	I/E Range
POSFEEDENABLE	TOGGLE	F	Positive Feedback IR Comp
POSFEEDRESISTANCE	QUANT	0	Positive Feedback Resistance (ohm)
ACHSELECT	IQUANT	0	Ach Select
CABLEID	IQUANT	14	Cable ID
DCCALDATE	LABEL	2/18/2019	DC Calibration Date
ACCALDATE	LABEL	2/18/2019	AC Calibration Date
THERMOSELECT	IQUANT	1	Thermo Select
FRAMEWORKVERSION	QUANT	6.33	Framework Version
INSTRUMENTVERSION	LABEL	3.50	Instrument Version
CURVE1	TABLE
	Pt	T	Vf	Im	Vu	Sig	Ach	IERange	Over
	#	s	V vs. Ref.	A	V	V	V	#	bits
	0	0.05	-1.99954E-001	-1.70619E-006	0.00000E+000	-2.00250E-001	1.62255E-004	10	...........
	3	0.2	-1.70042E-001	3.50508E-006	0.00000E+000	-1.70250E-001	1.64656E-004	10	...........
	6	0.35	-1.40108E-001	4.59081E-006	0.00000E+000	-1.40250E-001	1.64389E-004	10	...........
	9	0.5	-1.10068E-001	5.78992E-006	0.00000E+000	-1.10250E-001	1.60155E-004	10	...........
	12	0.65	-7.99608E-002	6.81830E-006	0.00000E+000	-8.02500E-002	1.64956E-004	10	...........
	15	0.8	-5.01062E-002	8.43357E-006	0.00000E+000	-5.02500E-002	1.68491E-004	10	...........
	18	0.95	-2.01154E-002	1.03970E-005	0.00000E+000	-2.02500E-002	1.65857E-004	10	...........
	21	1.1	9.82691E-003	1.22063E-005	0.00000E+000	9.75001E-003	1.69725E-004	10	...........
	24	1.25	4.00385E-002	1.56296E-005	0.00000E+000	3.97500E-002	1.68257E-004	10	...........
	27	1.4	6.97951E-002	1.92749E-005	0.00000E+000	6.97500E-002	1.70025E-004	10	...........
	30	1.55	9.97714E-002	2.36439E-005	0.00000E+000	9.97500E-002	1.66990E-004	10	...........
	33	1.7	1.29717E-001	2.94093E-005	0.00000E+000	1.29750E-001	1.68091E-004	10	...........
	36	1.85	1.59740E-001	3.78778E-005	0.00000E+000	1.59750E-001	1.66323E-004	10	...........
	39	2	1.89688E-001	4.90673E-005	0.00000E+000	1.89750E-001	1.68991E-004	10	...........
	42	2.15	2.19647E-001	6.26730E-005	0.00000E+000	2.19750E-001	1.64656E-004	10	...........
	45	2.3	2.49653E-001	7.83828E-005	0.00000E+000	2.49750E-001	1.65190E-004	10	...........
	48	2.45	2.79631E-001	9.62968E-005	0.00000E+000	2.79750E-001	1.65823E-004	10	...........
	51	2.6	3.09492E-001	1.13832E-004	0.00000E+000	3.09750E-001	1.70025E-004	10	...........
	54	2.75	3.39579E-001	1.30207E-004	0.00000E+000	3.39750E-001	1.66757E-004	10	...........
	57	2.9	3.69615E-001	1.39638E-004	0.00000E+000	3.69750E-001	1.64823E-004	10	...........
	60	3.05	3.99491E-001	1.49724E-004	0.00000E+000	3.99750E-001	1.66323E-004	10	...........
	63	3.2	4.29436E-001	1.58630E-004	0.00000E+000	4.29750E-001	1.68491E-004	10	...........
	66	3.35	4.59498E-001	1.67208E-004	0.00000E+000	4.59750E-001	1.65523E-004	10	...........
	69	3.5	4.89591E-001	1.76987E-004	0.00000E+000	4.89750E-001	1.65223E-004	10	...........
	72	3.65	5.19427E-001	1.88153E-004	0.00000E+000	5.19750E-001	1.68457E-004	10	...........
	75	3.8	5.49402E-001	2.01070E-004	0.00000E+000	5.49750E-001	1.66957E-004	10	...........
	78	3.95	5.79413E-001	2.13197E-004	0.00000E+000	5.79750E-001	1.66390E-004	10	...........
	81	4.1	6.09541E-001	2.25851E-004	0.00000E+000	6.09750E-001	1.67624E-004	10	...........
	84	4.25	6.39297E-001	2.40512E-004	0.00000E+000	6.39750E-001	1.67457E-004	10	...........
	87	4.4	6.69297E-001	2.49886E-004	0.00000E+000	6.69750E-001	1.64189E-004	10	...........
	90	4.55	6.99289E-001	2.55342E-004	0.00000E+000	6.99750E-001	1.67024E-004	10	...........
	93	4.7	7.29232E-001	2.61681E-004	0.00000E+000	7.29750E-001	1.65123E-004	10	...........
	96	4.85	7.59081E-001	2.64716E-004	0.00000E+000	7.59750E-001	1.68858E-004	10	...........
	99	5	7.89240E-001	2.68707E-004	0.00000E+000	7.89750E-001	1.63989E-004	10	...........
	102	5.15	8.19242E-001	2.71240E-004	0.00000E+000	8.19750E-001	1.65823E-004	10	...........
	105	5.3	8.49169E-001	2.79289E-004	0.00000E+000	8.49750E-001	1.63923E-004	10	...........
	108	5.45	8.79144E-001	2.88282E-004	0.00000E+000	8.79750E-001	1.65657E-004	10	...........
	111	5.6	8.89324E-001	2.00305E-004	0.00000E+000	8.89750E-001	1.65657E-004	10	...........
	114	5.75	8.59322E-001	8.40429E-005	0.00000E+000	8.59750E-001	1.65323E-004	10	...........
	117	5.9	8.29291E-001	4.22594E-005	0.00000E+000	8.29750E-001	1.67624E-004	10	...........
	120	6.05	7.99251E-001	3.26445E-005	0.00000E+000	7.99750E-001	1.65990E-004	10	...........
	123	6.2	7.69312E-001	1.39616E-005	0.00000E+000	7.69750E-001	1.66057E-004	10	...........
	126	6.35	7.39340E-001	6.19941E-006	0.00000E+000	7.39750E-001	1.65023E-004	10	...........
	129	6.5	7.09361E-001	3.19629E-006	0.00000E+000	7.09750E-001	1.62556E-004	10	...........
	132	6.65	6.79379E-001	-5.74436E-007	0.00000E+000	6.79750E-001	1.64189E-004	10	...........
	135	6.8	6.49393E-001	-2.45780E-006	0.00000E+000	6.49750E-001	1.61589E-004	10	...........
	138	6.95	6.19416E-001	-4.69796E-006	0.00000E+000	6.19750E-001	1.67257E-004	10	...........
	141	7.1	5.89449E-001	-6.52331E-006	0.00000E+000	5.89750E-001	1.64189E-004	10	...........
	144	7.25	5.59452E-001	-9.68648E-006	0.00000E+000	5.59750E-001	1.70191E-004	10	...........
	147	7.4	5.29546E-001	-1.12977E-005	0.00000E+000	5.29750E-001	1.65356E-004	10	...........
	150	7.55	4.99486E-001	-1.33798E-005	0.00000E+000	4.99750E-001	1.65190E-004	10	...........
	153	7.7	4.69501E-001	-1.52625E-005	0.00000E+000	4.69750E-001	1.67090E-004	10	...........
	156	7.85	4.39502E-001	-1.87945E-005	0.00000E+000	4.39750E-001	1.70425E-004	10	...........
	159	8	4.09685E-001	-2.21057E-005	0.00000E+000	4.09750E-001	1.65123E-004	10	...........
	162	8.15	3.79678E-001	-2.58091E-005	0.00000E+000	3.79750E-001	1.65023E-004	10	...........
	165	8.3	3.49535E-001	-3.04208E-005	0.00000E+000	3.49750E-001	1.68124E-004	10	...........
	168	8.45	3.19620E-001	-3.58802E-005	0.00000E+000	3.19750E-001	1.65657E-004	10	...........
	171	8.6	2.89699E-001	-4.29768E-005	0.00000E+000	2.89750E-001	1.68157E-004	10	...........
	174	8.75	2.59707E-001	-5.21469E-005	0.00000E+000	2.59750E-001	1.67991E-004	10	...........
	177	8.9	2.29655E-001	-6.40333E-005	0.00000E+000	2.29750E-001	1.66323E-004	10	...........
	180	9.05	1.99877E-001	-8.02080E-005	0.00000E+000	1.99750E-001	1.67924E-004	10	...........
	183	9.2	1.69801E-001	-1.02614E-004	0.00000E+000	1.69750E-001	1.68191E-004	10	...........
	186	9.35	1.39767E-001	-1.33568E-004	0.00000E+000	1.39750E-001	1.67257E-004	10	...........
	189	9.5	1.09804E-001	-1.75568E-004	0.00000E+000	1.09750E-001	1.73259E-004	10	...........
	192	9.65	7.99567E-002	-2.30116E-004	0.00000E+000	7.97500E-002	1.67891E-004	10	...........
	195	9.8	4.98953E-002	-2.82488E-004	0.00000E+000	4.97500E-002	1.71492E-004	10	...........
	198	9.95	1.98884E-002	-3.06768E-004	0.00000E+000	1.97500E-002	1.67857E-004	10	...........
	201	10.1	-1.01116E-002	-2.82788E-004	0.00000E+000	-1.02500E-002	1.67591E-004	10	...........
	204	10.25	-4.00047E-002	-2.17674E-004	0.00000E+000	-4.02500E-002	1.67090E-004	10	...........
	207	10.4	-7.00202E-002	-1.53895E-004	0.00000E+000	-7.02500E-002	1.68791E-004	10	...........
	210	10.55	-1.00049E-001	-1.05387E-004	0.00000E+000	-1.00250E-001	1.68491E-004	10	...........
	213	10.7	-1.29989E-001	-7.08672E-005	0.00000E+000	-1.30250E-001	1.64490E-004	10	...........
	216	10.85	-1.59903E-001	-4.65055E-005	0.00000E+000	-1.60250E-001	1.63756E-004	10	...........
	219	11	-1.89905E-001	-3.11891E-005	0.00000E+000	-1.90250E-001	1.65190E-004	10	...........
	222	11.15	-2.19908E-001	-2.32869E-005	0.00000E+000	-2.20250E-001	1.67057E-004	10	...........
	225	11.3	-2.49877E-001	-2.04818E-005	0.00000E+000	-2.50250E-001	1.62556E-004	10	...........
	228	11.45	-2.79840E-001	-1.92674E-005	0.00000E+000	-2.80250E-001	1.65223E-004	10	...........
	231	11.6	-3.09793E-001	-2.10053E-005	0.00000E+000	-3.10250E-001	1.66957E-004	10	...........
	234	11.75	-3.39818E-001	-2.40638E-005	0.00000E+000	-3.40250E-001	1.64923E-004	10	...........
	237	11.9	-3.69680E-001	-3.34366E-005	0.00000E+000	-3.70250E-001	1.59955E-004	10	...........
	240	12.05	-3.99757E-001	-4.91765E-005	0.00000E+000	-4.00250E-001	1.68257E-004	10	...........
	243	12.2	-4.29731E-001	-8.08902E-005	0.00000E+000	-4.30250E-001	1.66624E-004	10	...........
	246	12.35	-4.59736E-001	-1.20948E-004	0.00000E+000	-4.60250E-001	1.70658E-004	10	...........
	249	12.5	-4.89529E-001	-1.39761E-004	0.00000E+000	-4.90250E-001	1.65190E-004	10	...........
	252	12.65	-5.19657E-001	-1.39729E-004	0.00000E+000	-5.20250E-001	1.67124E-004	10	...........
	255	12.8	-5.49719E-001	-1.70633E-004	0.00000E+000	-5.50250E-001	1.65890E-004	10	...........
	258	12.95	-5.79660E-001	-2.53528E-004	0.00000E+000	-5.80250E-001	1.71992E-004	10	...........
	261	13.1	-6.09544E-001	-2.49932E-004	0.00000E+000	-6.10250E-001	1.66257E-004	10	...........
	264	13.25	-6.39556E-001	-2.34112E-004	0.00000E+000	-6.40250E-001	1.67791E-004	10	...........
	267	13.4	-6.69599E-001	-3.73967E-004	0.00000E+000	-6.70250E-001	1.67591E-004	10	...........
	269	13.5	-6.89479E-001	-8.76872E-004	0.00000E+000	-6.90250E-001	1.65890E-004	10	...........
CURVE2	TABLE
	Pt	T	Vf	Im	Vu	Sig	Ach	IERange	Over
	#	s	V vs. Ref.	A	V	V	V	#	bits
	270	13.55	-6.84370E-001	-2.80634E-004	0.00000E+000	-6.85000E-001	1.63956E-004	10	...........
	273	13.7	-6.54386E-001	9.26561E-005	0.00000E+000	-6.55000E-001	1.61489E-004	10	...........
	276	13.85	-6.24428E-001	1.29740E-004	0.00000E+000	-6.25000E-001	1.63022E-004	10	...........
	279	14	-5.94502E-001	1.71564E-004	0.00000E+000	-5.95000E-001	1.70091E-004	10	...........
	282	14.15	-5.64422E-001	2.09973E-004	0.00000E+000	-5.65000E-001	1.65923E-004	10	...........
	285	14.3	-5.34362E-001	1.36415E-004	0.00000E+000	-5.35000E-001	1.65623E-004	10	...........
	288	14.45	-5.04507E-001	1.17469E-004	0.00000E+000	-5.05000E-001	1.69158E-004	10	...........
	291	14.6	-4.74557E-001	1.23226E-004	0.00000E+000	-4.75000E-001	1.70191E-004	10	...........
	294	14.75	-4.44496E-001	1.46874E-004	0.00000E+000	-4.45000E-001	1.69091E-004	10	...........
	297	14.9	-4.14366E-001	1.18422E-004	0.00000E+000	-4.15000E-001	1.67324E-004	10	...........
	300	15.05	-3.84552E-001	5.46054E-005	0.00000E+000	-3.85000E-001	1.70825E-004	10	...........
	303	15.2	-3.54585E-001	3.44572E-005	0.00000E+000	-3.55000E-001	1.71558E-004	10	...........
	306	15.35	-3.24591E-001	2.66850E-005	0.00000E+000	-3.25000E-001	1.69791E-004	10	...........
	309	15.5	-2.94655E-001	2.23887E-005	0.00000E+000	-2.95000E-001	1.67524E-004	10	...........
	312	15.65	-2.64700E-001	2.35198E-005	0.00000E+000	-2.65000E-001	1.66957E-004	10	...........
	315	15.8	-2.34644E-001	2.73686E-005	0.00000E+000	-2.35000E-001	1.68057E-004	10	...........
	318	15.95	-2.04728E-001	3.25625E-005	0.00000E+000	-2.05000E-001	1.66790E-004	10	...........
	321	16.1	-1.74789E-001	3.76891E-005	0.00000E+000	-1.75000E-001	1.66590E-004	10	...........
	324	16.25	-1.44811E-001	4.12217E-005	0.00000E+000	-1.45000E-001	1.67724E-004	10	...........
	327	16.4	-1.14859E-001	4.16819E-005	0.00000E+000	-1.15000E-001	1.66090E-004	10	...........
	330	16.55	-8.47551E-002	4.05475E-005	0.00000E+000	-8.50000E-002	1.65923E-004	10	...........
	333	16.7	-5.48479E-002	3.78898E-005	0.00000E+000	-5.50000E-002	1.66490E-004	10	...........
	336	16.85	-2.49254E-002	3.48080E-005	0.00000E+000	-2.50000E-002	1.68157E-004	10	...........
	339	17	5.05566E-003	3.10933E-005	0.00000E+000	5.00001E-003	1.72059E-004	10	...........
	342	17.15	3.51228E-002	2.97781E-005	0.00000E+000	3.50000E-002	1.66524E-004	10	...........
	345	17.3	6.50084E-002	3.00002E-005	0.00000E+000	6.50000E-002	1.67457E-004	10	...........
	348	17.45	9.50183E-002	3.22004E-005	0.00000E+000	9.50000E-002	1.65957E-004	10	...........
	351	17.6	1.25004E-001	3.80625E-005	0.00000E+000	1.25000E-001	1.70458E-004	10	...........
	354	17.75	1.55155E-001	4.95601E-005	0.00000E+000	1.55000E-001	1.67591E-004	10	...........
	357	17.9	1.84950E-001	6.85772E-005	0.00000E+000	1.85000E-001	1.66457E-004	10	...........
	360	18.05	2.14904E-001	8.87987E-005	0.00000E+000	2.15000E-001	1.64223E-004	10	...........
	363	18.2	2.44897E-001	1.10269E-004	0.00000E+000	2.45000E-001	1.66724E-004	10	...........
	366	18.35	2.75005E-001	1.26788E-004	0.00000E+000	2.75000E-001	1.66757E-004	10	...........
	369	18.5	3.04770E-001	1.33591E-004	0.00000E+000	3.05000E-001	1.70491E-004	10	...........
	372	18.65	3.34827E-001	1.38592E-004	0.00000E+000	3.35000E-001	1.66123E-004	10	...........
	375	18.8	3.64848E-001	1.43076E-004	0.00000E+000	3.65000E-001	1.65523E-004	10	...........
	378	18.95	3.94758E-001	1.47010E-004	0.00000E+000	3.95000E-001	1.60422E-004	10	...........
	381	19.1	4.24642E-001	1.46605E-004	0.00000E+000	4.25000E-001	1.67857E-004	10	...........
	384	19.25	4.54750E-001	1.46538E-004	0.00000E+000	4.55000E-001	1.64056E-004	10	...........
	387	19.4	4.84834E-001	1.47866E-004	0.00000E+000	4.85000E-001	1.63623E-004	10	...........
	390	19.55	5.14660E-001	1.52426E-004	0.00000E+000	5.15000E-001	1.67557E-004	10	...........
	393	19.7	5.44637E-001	1.59151E-004	0.00000E+000	5.45000E-001	1.66857E-004	10	...........
	396	19.85	5.74646E-001	1.67674E-004	0.00000E+000	5.75000E-001	1.69124E-004	10	...........
	399	20	6.04822E-001	1.72865E-004	0.00000E+000	6.05000E-001	1.64256E-004	10	...........
	402	20.15	6.34581E-001	1.78128E-004	0.00000E+000	6.35000E-001	1.66824E-004	10	...........
	405	20.3	6.64557E-001	1.81407E-004	0.00000E+000	6.65000E-001	1.62255E-004	10	...........
	408	20.45	6.94545E-001	1.81836E-004	0.00000E+000	6.95000E-001	1.64890E-004	10	...........
	411	20.6	7.24535E-001	1.80364E-004	0.00000E+000	7.25000E-001	1.64956E-004	10	...........
	414	20.75	7.54444E-001	1.78907E-004	0.00000E+000	7.55000E-001	1.62789E-004	10	...........
	417	20.9	7.84478E-001	1.84572E-004	0.00000E+000	7.85000E-001	1.60555E-004	10	...........
	420	21.05	8.14465E-001	1.83325E-004	0.00000E+000	8.15000E-001	1.63623E-004	10	...........
	423	21.2	8.44491E-001	1.92868E-004	0.00000E+000	8.45000E-001	1.58754E-004	10	...........
	426	21.35	8.74364E-001	2.11464E-004	0.00000E+000	8.75000E-001	1.64356E-004	10	...........
	429	21.5	8.84738E-001	1.67485E-004	0.00000E+000	8.85000E-001	1.61122E-004	10	...........
	432	21.65	8.54539E-001	6.82691E-005	0.00000E+000	8.55000E-001	1.61222E-004	10	...........
	435	21.8	8.24543E-001	2.93046E-005	0.00000E+000	8.25000E-001	1.60655E-004	10	...........
	438	21.95	7.94470E-001	1.38242E-005	0.00000E+000	7.95000E-001	1.61822E-004	10	...........
	441	22.1	7.64640E-001	7.37584E-006	0.00000E+000	7.65000E-001	1.61322E-004	10	...........
[...]
	3012	150.65	4.94760E-001	-1.61042E-005	0.00000E+000	4.95000E-001	1.61855E-004	10	...........
	3015	150.8	4.64728E-001	-1.85911E-005	0.00000E+000	4.65000E-001	1.64523E-004	10	...........
	3018	150.95	4.34791E-001	-2.22525E-005	0.00000E+000	4.35000E-001	1.60788E-004	10	...........
	3021	151.1	4.04920E-001	-2.51849E-005	0.00000E+000	4.05000E-001	1.64723E-004	10	...........
	3024	151.25	3.74907E-001	-3.02234E-005	0.00000E+000	3.75000E-001	1.62656E-004	10	...........
	3027	151.4	3.44836E-001	-3.52406E-005	0.00000E+000	3.45000E-001	1.62589E-004	10	...........
	3030	151.55	3.14876E-001	-4.19424E-005	0.00000E+000	3.15000E-001	1.60655E-004	10	...........
	3033	151.7	2.84936E-001	-4.91131E-005	0.00000E+000	2.85000E-001	1.64790E-004	10	...........
	3036	151.85	2.54943E-001	-5.98811E-005	0.00000E+000	2.55000E-001	1.58854E-004	10	...........
	3039	152	2.24921E-001	-7.35521E-005	0.00000E+000	2.25000E-001	1.62822E-004	10	...........
	3042	152.15	1.95107E-001	-9.33001E-005	0.00000E+000	1.95000E-001	1.64823E-004	10	...........
	3045	152.3	1.65016E-001	-1.21134E-004	0.00000E+000	1.65000E-001	1.67457E-004	10	...........
	3048	152.45	1.35032E-001	-1.61798E-004	0.00000E+000	1.35000E-001	1.65190E-004	10	...........
	3051	152.6	1.05053E-001	-2.19432E-004	0.00000E+000	1.05000E-001	1.69324E-004	10	...........
	3054	152.75	7.52718E-002	-2.91662E-004	0.00000E+000	7.50000E-002	1.64723E-004	10	...........
	3057	152.9	4.51372E-002	-3.52547E-004	0.00000E+000	4.50000E-002	1.67457E-004	10	...........
	3060	153.05	1.51131E-002	-3.48798E-004	0.00000E+000	1.50000E-002	1.70825E-004	10	...........
	3063	153.2	-1.48424E-002	-2.81817E-004	0.00000E+000	-1.50000E-002	1.62489E-004	10	...........
	3066	153.35	-4.47236E-002	-1.97027E-004	0.00000E+000	-4.50000E-002	1.62889E-004	10	...........
	3069	153.5	-7.47585E-002	-1.26917E-004	0.00000E+000	-7.50000E-002	1.63789E-004	10	...........
	3072	153.65	-1.04796E-001	-8.01679E-005	0.00000E+000	-1.05000E-001	1.66057E-004	10	...........
	3075	153.8	-1.34709E-001	-4.79267E-005	0.00000E+000	-1.35000E-001	1.59755E-004	10	...........
	3078	153.95	-1.64691E-001	-2.64700E-005	0.00000E+000	-1.65000E-001	1.59921E-004	10	...........
	3081	154.1	-1.94695E-001	-1.43495E-005	0.00000E+000	-1.95000E-001	1.61722E-004	10	...........
	3084	154.25	-2.24660E-001	-1.12664E-005	0.00000E+000	-2.25000E-001	1.64523E-004	10	...........
	3087	154.4	-2.54559E-001	-1.14331E-005	0.00000E+000	-2.55000E-001	1.62389E-004	10	...........
	3090	154.55	-2.84568E-001	-1.45176E-005	0.00000E+000	-2.85000E-001	1.62889E-004	10	...........
	3093	154.7	-3.14547E-001	-2.01277E-005	0.00000E+000	-3.15000E-001	1.63789E-004	10	...........
	3096	154.85	-3.44581E-001	-2.35510E-005	0.00000E+000	-3.45000E-001	1.64690E-004	10	...........
	3099	155	-3.74535E-001	-3.53727E-005	0.00000E+000	-3.75000E-001	1.64423E-004	10	...........
	3102	155.15	-4.04510E-001	-5.77063E-005	0.00000E+000	-4.05000E-001	1.60622E-004	10	...........
	3105	155.3	-4.34498E-001	-1.04560E-004	0.00000E+000	-4.35000E-001	1.66757E-004	10	...........
	3108	155.45	-4.64495E-001	-1.48621E-004	0.00000E+000	-4.65000E-001	1.66390E-004	10	...........
	3111	155.6	-4.94320E-001	-1.43466E-004	0.00000E+000	-4.95000E-001	1.61922E-004	10	...........
	3114	155.75	-5.24456E-001	-1.33407E-004	0.00000E+000	-5.25000E-001	1.61622E-004	10	...........
	3117	155.9	-5.54410E-001	-1.81942E-004	0.00000E+000	-5.55000E-001	1.64023E-004	10	...........
	3120	156.05	-5.84419E-001	-3.00574E-004	0.00000E+000	-5.85000E-001	1.58188E-004	10	...........
	3123	156.2	-6.14280E-001	-2.20160E-004	0.00000E+000	-6.15000E-001	1.64423E-004	10	...........
	3126	156.35	-6.44279E-001	-2.04821E-004	0.00000E+000	-6.45000E-001	1.61555E-004	10	...........
	3129	156.5	-6.74386E-001	-3.90370E-004	0.00000E+000	-6.75000E-001	1.65456E-004	10	...........
	3131	156.6	-6.94236E-001	-1.12282E-003	0.00000E+000	-6.95000E-001	1.64990E-004	10	...........
CURVE11	TABLE
	Pt	T	Vf	Im	Vu	Sig	Ach	IERange	Over
	#	s	V vs. Ref.	A	V	V	V	#	bits
	3132	156.65	-6.84374E-001	-8.48003E-005	0.00000E+000	-6.85000E-001	1.59155E-004	10	...........
	3133	156.7	-6.74476E-001	4.08109E-005	0.00000E+000	-6.75000E-001	1.66590E-004	10	...........
	3134	156.75	-6.64380E-001	8.20795E-005	0.00000E+000	-6.65000E-001	1.60355E-004	10	...........
	3135	156.8	-6.54390E-001	1.01450E-004	0.00000E+000	-6.55000E-001	1.61922E-004	10	...........
	3136	156.85	-6.44348E-001	1.09570E-004	0.00000E+000	-6.45000E-001	1.58354E-004	10	...........
	3137	156.9	-6.34416E-001	1.14767E-004	0.00000E+000	-6.35000E-001	1.55987E-004	10	...........
	3138	156.95	-6.24419E-001	1.33334E-004	0.00000E+000	-6.25000E-001	1.56887E-004	10	...........
	3139	157	-6.14358E-001	1.49849E-004	0.00000E+000	-6.15000E-001	1.59955E-004	10	...........
	3140	157.05	-6.04441E-001	1.62652E-004	0.00000E+000	-6.05000E-001	1.59555E-004	10	...........
	3141	157.1	-5.94501E-001	1.87696E-004	0.00000E+000	-5.95000E-001	1.62822E-004	10	...........
	3142	157.15	-5.84485E-001	2.10200E-004	0.00000E+000	-5.85000E-001	1.58321E-004	10	...........
	3143	157.2	-5.74363E-001	2.40347E-004	0.00000E+000	-5.75000E-001	1.59988E-004	10	...........
	3144	157.25	-5.64429E-001	2.37765E-004	0.00000E+000	-5.65000E-001	1.59688E-004	10	...........
	3145	157.3	-5.54482E-001	2.03863E-004	0.00000E+000	-5.55000E-001	1.61855E-004	10	...........
	3146	157.35	-5.44464E-001	1.60033E-004	0.00000E+000	-5.45000E-001	1.57254E-004	10	...........
	3147	157.4	-5.34363E-001	1.35539E-004	0.00000E+000	-5.35000E-001	1.56187E-004	10	...........
	3148	157.45	-5.24512E-001	1.16876E-004	0.00000E+000	-5.25000E-001	1.57521E-004	10	...........
	3149	157.5	-5.14529E-001	1.13712E-004	0.00000E+000	-5.15000E-001	1.61722E-004	10	...........
	3150	157.55	-5.04511E-001	1.13183E-004	0.00000E+000	-5.05000E-001	1.62489E-004	10	...........
	3151	157.6	-4.94375E-001	1.22188E-004	0.00000E+000	-4.95000E-001	1.63322E-004	10	...........
	3152	157.65	-4.84501E-001	1.25992E-004	0.00000E+000	-4.85000E-001	1.63589E-004	10	...........
	3153	157.7	-4.74559E-001	1.29968E-004	0.00000E+000	-4.75000E-001	1.59421E-004	10	...........
	3154	157.75	-4.64533E-001	1.30330E-004	0.00000E+000	-4.65000E-001	1.61955E-004	10	...........
	3155	157.8	-4.54419E-001	1.45212E-004	0.00000E+000	-4.55000E-001	1.60488E-004	10	...........
	3156	157.85	-4.44503E-001	1.61574E-004	0.00000E+000	-4.45000E-001	1.62556E-004	10	...........
	3157	157.9	-4.34560E-001	1.77788E-004	0.00000E+000	-4.35000E-001	1.63923E-004	10	...........
	3158	157.95	-4.24608E-001	1.62365E-004	0.00000E+000	-4.25000E-001	1.62189E-004	10	...........
	3159	158	-4.14372E-001	1.30652E-004	0.00000E+000	-4.15000E-001	1.59955E-004	10	...........
	3160	158.05	-4.04569E-001	9.00438E-005	0.00000E+000	-4.05000E-001	1.64723E-004	10	...........
	3161	158.1	-3.94569E-001	6.67832E-005	0.00000E+000	-3.95000E-001	1.63656E-004	10	...........
	3162	158.15	-3.84561E-001	5.09940E-005	0.00000E+000	-3.85000E-001	1.61389E-004	10	...........
	3163	158.2	-3.74561E-001	4.42348E-005	0.00000E+000	-3.75000E-001	1.61622E-004	10	...........
	3164	158.25	-3.64574E-001	3.88802E-005	0.00000E+000	-3.65000E-001	1.61989E-004	10	...........
	3165	158.3	-3.54584E-001	3.64533E-005	0.00000E+000	-3.55000E-001	1.65590E-004	10	...........
	3166	158.35	-3.44600E-001	3.23898E-005	0.00000E+000	-3.45000E-001	1.64656E-004	10	...........
	3167	158.4	-3.34483E-001	3.04717E-005	0.00000E+000	-3.35000E-001	1.58821E-004	10	...........
	3168	158.45	-3.24592E-001	2.74626E-005	0.00000E+000	-3.25000E-001	1.61155E-004	10	...........
	3169	158.5	-3.14603E-001	2.33251E-005	0.00000E+000	-3.15000E-001	1.56087E-004	10	...........
	3170	158.55	-3.04641E-001	2.34905E-005	0.00000E+000	-3.05000E-001	1.62155E-004	10	...........
	3171	158.6	-2.94662E-001	2.34131E-005	0.00000E+000	-2.95000E-001	1.59321E-004	10	...........
	3172	158.65	-2.84633E-001	2.28903E-005	0.00000E+000	-2.85000E-001	1.62222E-004	10	...........
	3173	158.7	-2.74658E-001	2.32437E-005	0.00000E+000	-2.75000E-001	1.59521E-004	10	...........
	3174	158.75	-2.64707E-001	2.37639E-005	0.00000E+000	-2.65000E-001	1.62989E-004	10	...........
	3175	158.8	-2.54594E-001	2.53105E-005	0.00000E+000	-2.55000E-001	1.62689E-004	10	...........
	3176	158.85	-2.44673E-001	2.64109E-005	0.00000E+000	-2.45000E-001	1.60722E-004	10	...........
	3177	158.9	-2.34647E-001	2.86144E-005	0.00000E+000	-2.35000E-001	1.63389E-004	10	...........
	3178	158.95	-2.24732E-001	2.96528E-005	0.00000E+000	-2.25000E-001	1.61655E-004	10	...........
	3179	159	-2.14665E-001	3.17629E-005	0.00000E+000	-2.15000E-001	1.60588E-004	10	...........
	3180	159.05	-2.04723E-001	3.38083E-005	0.00000E+000	-2.05000E-001	1.62956E-004	10	...........