File: 20191209/CVTESTKRISTALL3BOX6_3.DTA
EXPLAIN
TAG	CV
TITLE	LABEL	CV	Test &Identifier
DATE	LABEL	12/9/2019	Date
TIME	LABEL	14:12:54	Time
NOTES	NOTES	1	&Notes...

PSTAT	PSTAT	REF600-16093	Potentiostat
VINIT	POTEN	0.00000E+000	T	Initial &E (V)
VLIMIT1	POTEN	8.00000E-001	F	Scan Limit &1 (V)
VLIMIT2	POTEN	-5.00000E-001	F	Scan Limit &2 (V)
VFINAL	POTEN	0.00000E+000	T	Final &E (V)
SCANRATE	QUANT	4.99999E+001	&Scan Rate (mV/s)
STEPSIZE	QUANT	1.00000E+000	St&ep Size (mV)
CYCLES	IQUANT	5	C&ycles (#)
IMODE	SELECTOR	1	I/E Range &Mode
IRANGE	QUANT	1.50000E+001	&Max Current (mA)
AREA	QUANT	1.00000E+000	Electrode &Area (cm^2)
ELECTRODETYPE	SELECTOR	0	Electrode Type
STRIPPING	TOGGLE	F	Used for Stripping
POLARITY	TOGGLE	F	Signal Polarity
CONDIT	TWOPARAM	F	1.50000E+001	0.00000E+000	Conditionin&g	Time(s)	E(V)
DELAY	TWOPARAM	T	5.00000E+000	0.00000E+000	Init. De&lay	Time(s)	Stab.(mV/s)
EQDELAY	QUANT	3.00000E+000	Equil. &Time (s)
IRCOMP	SELECTOR	0	IRCom&p
PFCOR	QUANT	0.00000E+000	PF Corr. (ohm)
SAMPLINGMODE	SELECTOR	2	Sampling &Mode
OCVCURVE	TABLE	20
	Pt	T	Vf	Vm	Ach	Over
	#	s	V vs. Ref.	V	V	bits
	0	0.25	1.76191E-001	1.76191E-001	6.72254E-005	...........
	1	0.5	1.76192E-001	1.76217E-001	6.61005E-005	...........
	2	0.75	1.76193E-001	1.76138E-001	7.27670E-005	...........
	3	1	1.76190E-001	1.76108E-001	7.18504E-005	...........
	4	1.25	1.76175E-001	1.76003E-001	6.84338E-005	...........
	5	1.5	1.76142E-001	1.76030E-001	7.03087E-005	...........
	6	1.75	1.76096E-001	1.75913E-001	7.47670E-005	...........
	7	2	1.76047E-001	1.75927E-001	7.49753E-005	...........
	8	2.25	1.76000E-001	1.75954E-001	7.15587E-005	...........
	9	2.5	1.75962E-001	1.75822E-001	7.37253E-005	...........
	10	2.75	1.75933E-001	1.75874E-001	7.15170E-005	...........
	11	3	1.75903E-001	1.75741E-001	7.37253E-005	...........
	12	3.25	1.75868E-001	1.75717E-001	7.23920E-005	...........
	13	3.5	1.75824E-001	1.75665E-001	7.44337E-005	...........
	14	3.75	1.75773E-001	1.75642E-001	7.11837E-005	...........
	15	4	1.75724E-001	1.75643E-001	7.03087E-005	...........
	16	4.25	1.75684E-001	1.75580E-001	7.10170E-005	...........
	17	4.5	1.75652E-001	1.75569E-001	6.86421E-005	...........
	18	4.75	1.75622E-001	1.75473E-001	6.79754E-005	...........
	19	5	1.75589E-001	1.75521E-001	6.41838E-005	...........
EOC	QUANT	0.1755891	Open Circuit (V)
PSTATMODEL	IQUANT	4	Pstat Model
PSTATSECTION	LABEL	REF600-16093	Pstat Section
PSTATSERIALNO	LABEL	16093	Pstat Serial Number
CTRLMODE	IQUANT	1	Control Mode
IESTAB	IQUANT	2	I/E Stability
CASPEED	IQUANT	2	Control Amp Speed
CONVENTION	IQUANT	1	Current Convention
ICHRANGE	IQUANT	2	Ich Range
ICHRANGEMODE	TOGGLE	F	Ich Auto Range
ICHOFFSETENABLE	TOGGLE	F	Ich Offset Enable
ICHOFFSET	QUANT	0	Ich Offset (V)
ICHFILTER	IQUANT	2	Ich Filter
VCHRANGE	IQUANT	2	Vch Range
VCHRANGEMODE	TOGGLE	F	Vch Auto Range
VCHOFFSETENABLE	TOGGLE	F	Vch Offset Enable
VCHOFFSET	QUANT	0	Vch Offset (V)
VCHFILTER	IQUANT	2	Vch Filter
ACHRANGE	IQUANT	2	Ach Range
ACHOFFSETENABLE	TOGGLE	F	Ach Offset Enable
ACHOFFSET	QUANT	0	Ach Offset (V)
ACHFILTER	IQUANT	1	Ach Filter
IERANGELOWERLIMIT	IQUANT	1	I/E Range Lower Limit
IERANGEMODE	TOGGLE	F	I/E AutoRange
IERANGE	IQUANT	10	I/E Range
POSFEEDENABLE	TOGGLE	F	Positive Feedback IR Comp
POSFEEDRESISTANCE	QUANT	0	Positive Feedback Resistance (ohm)
ACHSELECT	IQUANT	0	Ach Select
CABLEID	IQUANT	14	Cable ID
DCCALDATE	LABEL	11/5/2019	DC Calibration Date
ACCALDATE	LABEL		AC Calibration Date
THERMOSELECT	IQUANT	1	Thermo Select
FRAMEWORKVERSION	QUANT	6.12	Framework Version
INSTRUMENTVERSION	LABEL	3.11	Instrument Version
CURVE1	TABLE
	Pt	T	Vf	Im	Vu	Sig	Ach	IERange	Over
	#	s	V vs. Ref.	A	V	V	V	#	bits
	0	0.02	1.75184E-001	-2.09758E-006	0.00000E+000	1.75600E-001	6.14598E-005	10	...........
	18	0.38	1.93123E-001	-1.00497E-006	0.00000E+000	1.93600E-001	5.14516E-005	10	...........
	36	0.74	2.11068E-001	2.06087E-007	0.00000E+000	2.11600E-001	5.77067E-005	10	...........
	54	1.1	2.29171E-001	3.94585E-007	0.00000E+000	2.29600E-001	6.12096E-005	10	...........
	72	1.46	2.47071E-001	1.36043E-006	0.00000E+000	2.47600E-001	5.94582E-005	10	...........
	90	1.82	2.65057E-001	2.43970E-006	0.00000E+000	2.65600E-001	6.17100E-005	10	...........
	108	2.18	2.83001E-001	3.36217E-006	0.00000E+000	2.83600E-001	5.92080E-005	10	...........
	126	2.54	3.01155E-001	5.07032E-006	0.00000E+000	3.01600E-001	5.96250E-005	10	...........
	144	2.9	3.18986E-001	6.73511E-006	0.00000E+000	3.19600E-001	6.11262E-005	10	...........
	162	3.26	3.36966E-001	8.60006E-006	0.00000E+000	3.37600E-001	6.45457E-005	10	...........
	180	3.62	3.54962E-001	1.03516E-005	0.00000E+000	3.55600E-001	7.22186E-005	10	...........
	198	3.98	3.73155E-001	1.28905E-005	0.00000E+000	3.73600E-001	5.80404E-005	10	...........
	216	4.34	3.90962E-001	1.86238E-005	0.00000E+000	3.91600E-001	6.82987E-005	10	...........
	234	4.7	4.08962E-001	2.69794E-005	0.00000E+000	4.09600E-001	6.26274E-005	10	...........
	252	5.06	4.26710E-001	3.88781E-005	0.00000E+000	4.27600E-001	6.52963E-005	10	...........
	270	5.42	4.44929E-001	5.52991E-005	0.00000E+000	4.45600E-001	5.65391E-005	10	...........
	288	5.78	4.62915E-001	7.06191E-005	0.00000E+000	4.63600E-001	6.68809E-005	10	...........
	306	6.14	4.80895E-001	7.72999E-005	0.00000E+000	4.81600E-001	6.95498E-005	10	...........
	324	6.5	4.98810E-001	7.52614E-005	0.00000E+000	4.99600E-001	6.92996E-005	10	...........
	342	6.86	5.16838E-001	6.85072E-005	0.00000E+000	5.17600E-001	6.42955E-005	10	...........
	360	7.22	5.34853E-001	6.13360E-005	0.00000E+000	5.35600E-001	6.70477E-005	10	...........
	378	7.58	5.52812E-001	5.57461E-005	0.00000E+000	5.53600E-001	6.36283E-005	10	...........
	396	7.94	5.70771E-001	5.05950E-005	0.00000E+000	5.71600E-001	6.25440E-005	10	...........
	414	8.3	5.88789E-001	4.75556E-005	0.00000E+000	5.89600E-001	5.34533E-005	10	...........
	432	8.66	6.06790E-001	4.52903E-005	0.00000E+000	6.07600E-001	6.27108E-005	10	...........
	450	9.02	6.24716E-001	4.38191E-005	0.00000E+000	6.25600E-001	6.06258E-005	10	...........
	468	9.38	6.42631E-001	4.26013E-005	0.00000E+000	6.43600E-001	6.50461E-005	10	...........
	486	9.74	6.60706E-001	4.15955E-005	0.00000E+000	6.61600E-001	5.92080E-005	10	...........
	504	10.1	6.78733E-001	4.07697E-005	0.00000E+000	6.79600E-001	5.93748E-005	10	...........
	522	10.46	6.96649E-001	4.06613E-005	0.00000E+000	6.97600E-001	6.21270E-005	10	...........
	540	10.82	7.14579E-001	4.04611E-005	0.00000E+000	7.15600E-001	6.24606E-005	10	...........
	558	11.18	7.32595E-001	3.99006E-005	0.00000E+000	7.33600E-001	7.03838E-005	10	...........
	576	11.54	7.50709E-001	3.99724E-005	0.00000E+000	7.51600E-001	5.96250E-005	10	...........
	594	11.9	7.68587E-001	4.00975E-005	0.00000E+000	7.69600E-001	6.27108E-005	10	...........
	612	12.26	7.86570E-001	4.09516E-005	0.00000E+000	7.87600E-001	5.67893E-005	10	...........
	630	12.62	7.92623E-001	3.18636E-005	0.00000E+000	7.93600E-001	6.35449E-005	10	...........
	648	12.98	7.74718E-001	2.00817E-005	0.00000E+000	7.75600E-001	6.12930E-005	10	...........
	666	13.34	7.56555E-001	1.32191E-005	0.00000E+000	7.57600E-001	6.67141E-005	10	...........
	684	13.7	7.38594E-001	9.80945E-006	0.00000E+000	7.39600E-001	6.22104E-005	10	...........
	702	14.06	7.20643E-001	7.09375E-006	0.00000E+000	7.21600E-001	5.79570E-005	10	...........
	720	14.42	7.02688E-001	4.82177E-006	0.00000E+000	7.03600E-001	5.96250E-005	10	...........
	738	14.78	6.84660E-001	3.16033E-006	0.00000E+000	6.85600E-001	5.54549E-005	10	...........
	756	15.14	6.66655E-001	2.49475E-006	0.00000E+000	6.67600E-001	6.33781E-005	10	...........
	774	15.5	6.48703E-001	1.51389E-006	0.00000E+000	6.49600E-001	5.66225E-005	10	...........
	792	15.86	6.30790E-001	7.63239E-007	0.00000E+000	6.31600E-001	5.53715E-005	10	...........
	810	16.22	6.12748E-001	-4.16121E-007	0.00000E+000	6.13600E-001	5.45375E-005	10	...........
	828	16.58	5.94752E-001	-9.29901E-007	0.00000E+000	5.95600E-001	5.94582E-005	10	...........
	846	16.94	5.76771E-001	-1.74728E-006	0.00000E+000	5.77600E-001	5.77067E-005	10	...........
	864	17.3	5.58828E-001	-1.73727E-006	0.00000E+000	5.59600E-001	6.39619E-005	10	...........
	882	17.66	5.40813E-001	-2.13428E-006	0.00000E+000	5.41600E-001	5.49545E-005	10	...........
	900	18.02	5.22810E-001	-2.50294E-006	0.00000E+000	5.23600E-001	6.46291E-005	10	...........
	918	18.38	5.04887E-001	-2.90996E-006	0.00000E+000	5.05600E-001	6.37951E-005	10	...........
	936	18.74	4.86886E-001	-3.61557E-006	0.00000E+000	4.87600E-001	6.32113E-005	10	...........
	954	19.1	4.68921E-001	-4.39792E-006	0.00000E+000	4.69600E-001	6.18768E-005	10	...........
	972	19.46	4.50889E-001	-4.65648E-006	0.00000E+000	4.51600E-001	6.43789E-005	10	...........
	990	19.82	4.32950E-001	-5.02680E-006	0.00000E+000	4.33600E-001	6.32113E-005	10	...........
	1008	20.18	4.14938E-001	-5.63733E-006	0.00000E+000	4.15600E-001	6.52129E-005	10	...........
	1026	20.54	3.96975E-001	-6.28289E-006	0.00000E+000	3.97600E-001	6.31278E-005	10	...........
	1044	20.9	3.78970E-001	-7.17534E-006	0.00000E+000	3.79600E-001	6.33781E-005	10	...........
	1062	21.26	3.60987E-001	-7.89430E-006	0.00000E+000	3.61600E-001	7.23854E-005	10	...........
	1080	21.62	3.42985E-001	-8.82344E-006	0.00000E+000	3.43600E-001	6.89660E-005	10	...........
	1098	21.98	3.25146E-001	-9.99112E-006	0.00000E+000	3.25600E-001	6.40453E-005	10	...........
	1116	22.34	3.07002E-001	-1.17293E-005	0.00000E+000	3.07600E-001	6.88826E-005	10	...........
	1134	22.7	2.89045E-001	-1.35008E-005	0.00000E+000	2.89600E-001	6.44623E-005	10	...........
	1152	23.06	2.71058E-001	-1.50589E-005	0.00000E+000	2.71600E-001	7.07174E-005	10	...........
	1170	23.42	2.53178E-001	-1.81482E-005	0.00000E+000	2.53600E-001	6.98834E-005	10	...........
	1188	23.78	2.35037E-001	-2.05653E-005	0.00000E+000	2.35600E-001	6.73813E-005	10	...........
	1206	24.14	2.17100E-001	-2.37898E-005	0.00000E+000	2.17600E-001	6.40453E-005	10	...........
	1224	24.5	1.99128E-001	-2.78283E-005	0.00000E+000	1.99600E-001	6.48793E-005	10	...........
	1242	24.86	1.81199E-001	-3.32047E-005	0.00000E+000	1.81600E-001	5.89578E-005	10	...........
	1260	25.22	1.63133E-001	-4.05644E-005	0.00000E+000	1.63600E-001	5.44541E-005	10	...........
	1278	25.58	1.45054E-001	-4.92386E-005	0.00000E+000	1.45600E-001	6.50461E-005	10	...........
	1296	25.94	1.27227E-001	-5.81247E-005	0.00000E+000	1.27600E-001	6.08760E-005	10	...........
	1314	26.3	1.09214E-001	-6.73177E-005	0.00000E+000	1.09600E-001	6.56299E-005	10	...........
	1332	26.66	9.13968E-002	-7.44773E-005	0.00000E+000	9.16000E-002	5.74565E-005	10	...........
	1350	27.02	7.31901E-002	-7.81905E-005	0.00000E+000	7.36000E-002	7.08008E-005	10	...........
	1368	27.38	5.52752E-002	-8.04908E-005	0.00000E+000	5.56000E-002	7.15514E-005	10	...........
	1386	27.74	3.72523E-002	-7.90312E-005	0.00000E+000	3.76000E-002	6.40453E-005	10	...........
	1404	28.1	1.94328E-002	-7.69528E-005	0.00000E+000	1.96000E-002	6.47125E-005	10	...........
	1422	28.46	1.22923E-003	-7.39301E-005	0.00000E+000	1.60001E-003	6.66307E-005	10	...........
	1440	28.82	-1.66237E-002	-7.01685E-005	0.00000E+000	-1.64000E-002	6.46291E-005	10	...........
	1458	29.18	-3.46194E-002	-6.66221E-005	0.00000E+000	-3.44000E-002	7.28024E-005	10	...........
	1476	29.54	-5.25257E-002	-6.31374E-005	0.00000E+000	-5.24000E-002	6.22938E-005	10	...........
	1494	29.9	-7.06662E-002	-6.02616E-005	0.00000E+000	-7.04000E-002	7.50543E-005	10	...........
	1512	30.26	-8.85026E-002	-5.65567E-005	0.00000E+000	-8.84000E-002	6.28776E-005	10	...........
	1530	30.62	-1.06574E-001	-5.44648E-005	0.00000E+000	-1.06400E-001	6.37117E-005	10	...........
	1548	30.98	-1.24466E-001	-5.24398E-005	0.00000E+000	-1.24400E-001	6.92162E-005	10	...........
	1566	31.34	-1.42601E-001	-5.11253E-005	0.00000E+000	-1.42400E-001	6.76315E-005	10	...........
	1584	31.7	-1.60560E-001	-5.02028E-005	0.00000E+000	-1.60400E-001	6.56299E-005	10	...........
	1602	32.06	-1.78517E-001	-4.94622E-005	0.00000E+000	-1.78400E-001	6.42955E-005	10	...........
	1620	32.42	-1.96476E-001	-4.88583E-005	0.00000E+000	-1.96400E-001	6.10428E-005	10	...........
	1638	32.78	-2.14527E-001	-4.84663E-005	0.00000E+000	-2.14400E-001	6.06258E-005	10	...........
	1656	33.14	-2.32484E-001	-4.85530E-005	0.00000E+000	-2.32400E-001	6.26274E-005	10	...........
	1674	33.5	-2.50465E-001	-4.84713E-005	0.00000E+000	-2.50400E-001	5.96250E-005	10	...........
	1692	33.86	-2.68422E-001	-4.88149E-005	0.00000E+000	-2.68400E-001	6.28776E-005	10	...........
	1710	34.22	-2.86357E-001	-4.88750E-005	0.00000E+000	-2.86400E-001	6.44623E-005	10	...........
	1728	34.58	-3.04430E-001	-4.90134E-005	0.00000E+000	-3.04400E-001	5.75399E-005	10	...........
	1746	34.94	-3.22404E-001	-4.92069E-005	0.00000E+000	-3.22400E-001	6.15432E-005	10	...........
	1764	35.3	-3.40334E-001	-4.96807E-005	0.00000E+000	-3.40400E-001	5.97918E-005	10	...........
	1782	35.66	-3.58331E-001	-5.11169E-005	0.00000E+000	-3.58400E-001	6.71311E-005	10	...........
	1800	36.02	-3.76372E-001	-5.25448E-005	0.00000E+000	-3.76400E-001	6.78817E-005	10	...........
	1818	36.38	-3.94296E-001	-5.43914E-005	0.00000E+000	-3.94400E-001	6.34615E-005	10	...........
	1836	36.74	-4.12246E-001	-5.58611E-005	0.00000E+000	-4.12400E-001	6.59635E-005	10	...........
	1854	37.1	-4.30247E-001	-5.78378E-005	0.00000E+000	-4.30400E-001	6.21270E-005	10	...........
	1872	37.46	-4.48294E-001	-5.97027E-005	0.00000E+000	-4.48400E-001	7.29692E-005	10	...........
	1890	37.82	-4.66240E-001	-6.15527E-005	0.00000E+000	-4.66400E-001	6.60469E-005	10	...........
	1908	38.18	-4.84215E-001	-6.48956E-005	0.00000E+000	-4.84400E-001	7.23854E-005	10	...........
	1924	38.5	-5.00260E-001	-6.97348E-005	0.00000E+000	-5.00400E-001	6.67975E-005	10	...........
CURVE2	TABLE
	Pt	T	Vf	Im	Vu	Sig	Ach	IERange	Over
	#	s	V vs. Ref.	A	V	V	V	#	bits
	1925	38.52	-4.98831E-001	-5.36742E-005	0.00000E+000	-4.99000E-001	6.27942E-005	10	...........
	1950	39.02	-4.73913E-001	-4.07129E-005	0.00000E+000	-4.74000E-001	6.39619E-005	10	...........
	1975	39.52	-4.48908E-001	-3.78370E-005	0.00000E+000	-4.49000E-001	5.30363E-005	10	...........
	2000	40.02	-4.23917E-001	-3.58286E-005	0.00000E+000	-4.24000E-001	6.95498E-005	10	...........
	2025	40.52	-3.98915E-001	-3.42256E-005	0.00000E+000	-3.99000E-001	6.09594E-005	10	...........
	2050	41.02	-3.73952E-001	-3.27643E-005	0.00000E+000	-3.74000E-001	6.41287E-005	10	...........
	2075	41.52	-3.49011E-001	-3.15649E-005	0.00000E+000	-3.49000E-001	6.65473E-005	10	...........
	2100	42.02	-3.24022E-001	-2.95231E-005	0.00000E+000	-3.24000E-001	6.23772E-005	10	...........
	2125	42.52	-2.98974E-001	-2.76015E-005	0.00000E+000	-2.99000E-001	6.03756E-005	10	...........
	2150	43.02	-2.74074E-001	-2.55480E-005	0.00000E+000	-2.74000E-001	6.62137E-005	10	...........
	2175	43.52	-2.49053E-001	-2.31092E-005	0.00000E+000	-2.49000E-001	7.07174E-005	10	...........
	2200	44.02	-2.24107E-001	-2.00999E-005	0.00000E+000	-2.24000E-001	6.39619E-005	10	...........
	2225	44.52	-1.99111E-001	-1.72675E-005	0.00000E+000	-1.99000E-001	6.81320E-005	10	...........
	2250	45.02	-1.74072E-001	-1.52774E-005	0.00000E+000	-1.74000E-001	6.47959E-005	10	...........
	2275	45.52	-1.49142E-001	-1.34441E-005	0.00000E+000	-1.49000E-001	6.45457E-005	10	...........
	2300	46.02	-1.24166E-001	-1.13673E-005	0.00000E+000	-1.24000E-001	7.13846E-005	10	...........
	2325	46.52	-9.91962E-002	-9.85100E-006	0.00000E+000	-9.90000E-002	5.93748E-005	10	...........
	2350	47.02	-7.42166E-002	-8.87182E-006	0.00000E+000	-7.40000E-002	6.71311E-005	10	...........
	2375	47.52	-4.92012E-002	-7.57569E-006	0.00000E+000	-4.90000E-002	6.49627E-005	10	...........
	2400	48.02	-2.42754E-002	-6.96516E-006	0.00000E+000	-2.40000E-002	6.42955E-005	10	...........
	2425	48.52	6.48340E-004	-5.72241E-006	0.00000E+000	1.00002E-003	7.00502E-005	10	...........
	2450	49.02	2.57898E-002	-4.96341E-006	0.00000E+000	2.60000E-002	6.26274E-005	10	...........
	2475	49.52	5.05894E-002	-4.31285E-006	0.00000E+000	5.10000E-002	6.81320E-005	10	...........
	2500	50.02	7.56784E-002	-3.12181E-006	0.00000E+000	7.60000E-002	7.09676E-005	10	...........
	2525	50.52	1.00595E-001	-2.59135E-006	0.00000E+000	1.01000E-001	6.98000E-005	10	...........
	2550	51.02	1.25606E-001	-1.55044E-006	0.00000E+000	1.26000E-001	6.42955E-005	10	...........
	2575	51.52	1.50712E-001	-5.47902E-007	0.00000E+000	1.51000E-001	6.82987E-005	10	...........
	2600	52.02	1.75489E-001	6.09772E-007	0.00000E+000	1.76000E-001	7.01336E-005	10	...........
	2625	52.52	2.00558E-001	1.70906E-006	0.00000E+000	2.01000E-001	6.87158E-005	10	...........
	2650	53.02	2.25499E-001	2.63820E-006	0.00000E+000	2.26000E-001	6.52129E-005	10	...........
	2675	53.52	2.50466E-001	3.34048E-006	0.00000E+000	2.51000E-001	6.79651E-005	10	...........
	2700	54.02	2.75564E-001	4.44811E-006	0.00000E+000	2.76000E-001	6.22104E-005	10	...........
	2725	54.52	3.00405E-001	5.61580E-006	0.00000E+000	3.01000E-001	6.72145E-005	10	...........
	2750	55.02	3.25416E-001	7.63422E-006	0.00000E+000	3.26000E-001	6.47959E-005	10	...........
	2775	55.52	3.50371E-001	1.01931E-005	0.00000E+000	3.51000E-001	6.07926E-005	10	...........
	2800	56.02	3.75368E-001	1.38780E-005	0.00000E+000	3.76000E-001	6.61303E-005	10	...........
	2825	56.52	4.00387E-001	2.23437E-005	0.00000E+000	4.01000E-001	6.72979E-005	10	...........
	2850	57.02	4.25294E-001	3.67863E-005	0.00000E+000	4.26000E-001	7.35530E-005	10	...........
	2875	57.52	4.50260E-001	5.59563E-005	0.00000E+000	4.51000E-001	6.56299E-005	10	...........
[...]
	12381	247.64	-4.42793E-001	-4.02224E-005	0.00000E+000	-4.43000E-001	6.44623E-005	10	...........
	12388	247.78	-4.35732E-001	-3.97387E-005	0.00000E+000	-4.36000E-001	6.96332E-005	10	...........
	12395	247.92	-4.28843E-001	-3.99472E-005	0.00000E+000	-4.29000E-001	6.20436E-005	10	...........
	12402	248.06	-4.21849E-001	-3.94301E-005	0.00000E+000	-4.22000E-001	7.58049E-005	10	...........
	12409	248.2	-4.14849E-001	-3.90681E-005	0.00000E+000	-4.15000E-001	7.09676E-005	10	...........
	12416	248.34	-4.07728E-001	-3.88913E-005	0.00000E+000	-4.08000E-001	7.07174E-005	10	...........
	12423	248.48	-4.00889E-001	-3.83158E-005	0.00000E+000	-4.01000E-001	6.16266E-005	10	...........
	12430	248.62	-3.93907E-001	-3.83825E-005	0.00000E+000	-3.94000E-001	6.62971E-005	10	...........
	12437	248.76	-3.86808E-001	-3.78354E-005	0.00000E+000	-3.87000E-001	6.75481E-005	10	...........
	12444	248.9	-3.79830E-001	-3.72382E-005	0.00000E+000	-3.80000E-001	6.32113E-005	10	...........
	12451	249.04	-3.72926E-001	-3.76435E-005	0.00000E+000	-3.73000E-001	5.95416E-005	10	...........
	12458	249.18	-3.65883E-001	-3.70380E-005	0.00000E+000	-3.66000E-001	6.64639E-005	10	...........
	12465	249.32	-3.58873E-001	-3.66860E-005	0.00000E+000	-3.59000E-001	5.88744E-005	10	...........
	12472	249.46	-3.51849E-001	-3.61756E-005	0.00000E+000	-3.52000E-001	6.95498E-005	10	...........
	12479	249.6	-3.44944E-001	-3.60622E-005	0.00000E+000	-3.45000E-001	6.49627E-005	10	...........
	12486	249.74	-3.37903E-001	-3.57185E-005	0.00000E+000	-3.38000E-001	6.56299E-005	10	...........
	12493	249.88	-3.30839E-001	-3.52148E-005	0.00000E+000	-3.31000E-001	6.45457E-005	10	...........
	12500	250.02	-3.23921E-001	-3.43957E-005	0.00000E+000	-3.24000E-001	6.42121E-005	10	...........
	12507	250.16	-3.16975E-001	-3.40220E-005	0.00000E+000	-3.17000E-001	6.14598E-005	10	...........
	12514	250.3	-3.09898E-001	-3.36000E-005	0.00000E+000	-3.10000E-001	6.64639E-005	10	...........
	12521	250.44	-3.02889E-001	-3.33848E-005	0.00000E+000	-3.03000E-001	6.40453E-005	10	...........
	12528	250.58	-2.95969E-001	-3.31580E-005	0.00000E+000	-2.96000E-001	6.54631E-005	10	...........
	12535	250.72	-2.88944E-001	-3.25674E-005	0.00000E+000	-2.89000E-001	6.94664E-005	10	...........
	12542	250.86	-2.81960E-001	-3.16984E-005	0.00000E+000	-2.82000E-001	6.97166E-005	10	...........
	12549	251	-2.74896E-001	-3.16083E-005	0.00000E+000	-2.75000E-001	6.54631E-005	10	...........
	12556	251.14	-2.67841E-001	-3.15399E-005	0.00000E+000	-2.68000E-001	6.66307E-005	10	...........
	12563	251.28	-2.60995E-001	-3.07359E-005	0.00000E+000	-2.61000E-001	6.68809E-005	10	...........
	12570	251.42	-2.53970E-001	-2.96799E-005	0.00000E+000	-2.54000E-001	6.80485E-005	10	...........
	12577	251.56	-2.46936E-001	-2.93997E-005	0.00000E+000	-2.47000E-001	6.79651E-005	10	...........
	12584	251.7	-2.39873E-001	-2.93930E-005	0.00000E+000	-2.40000E-001	5.32031E-005	10	...........
	12591	251.84	-2.32957E-001	-2.90777E-005	0.00000E+000	-2.33000E-001	7.00502E-005	10	...........
	12598	251.98	-2.26009E-001	-2.76565E-005	0.00000E+000	-2.26000E-001	6.25440E-005	10	...........
	12605	252.12	-2.18989E-001	-2.74396E-005	0.00000E+000	-2.19000E-001	6.15432E-005	10	...........
	12612	252.26	-2.12020E-001	-2.70493E-005	0.00000E+000	-2.12000E-001	6.03756E-005	10	...........
	12619	252.4	-2.05038E-001	-2.62836E-005	0.00000E+000	-2.05000E-001	6.33781E-005	10	...........
	12626	252.54	-1.98035E-001	-2.57915E-005	0.00000E+000	-1.98000E-001	6.43789E-005	10	...........
	12633	252.68	-1.90917E-001	-2.54996E-005	0.00000E+000	-1.91000E-001	5.15350E-005	10	...........
	12640	252.82	-1.83991E-001	-2.46122E-005	0.00000E+000	-1.84000E-001	6.08760E-005	10	...........
	12647	252.96	-1.77035E-001	-2.39566E-005	0.00000E+000	-1.77000E-001	6.79651E-005	10	...........
	12654	253.1	-1.70086E-001	-2.34979E-005	0.00000E+000	-1.70000E-001	6.52963E-005	10	...........
	12661	253.24	-1.62934E-001	-2.29307E-005	0.00000E+000	-1.63000E-001	6.37117E-005	10	...........
	12668	253.38	-1.56062E-001	-2.24169E-005	0.00000E+000	-1.56000E-001	5.69561E-005	10	...........
	12675	253.52	-1.49098E-001	-2.15745E-005	0.00000E+000	-1.49000E-001	6.98834E-005	10	...........
	12682	253.66	-1.42093E-001	-2.12476E-005	0.00000E+000	-1.42000E-001	6.85490E-005	10	...........
	12689	253.8	-1.35009E-001	-1.99148E-005	0.00000E+000	-1.35000E-001	6.35449E-005	10	...........
	12696	253.94	-1.28094E-001	-1.92075E-005	0.00000E+000	-1.28000E-001	6.33781E-005	10	...........
	12703	254.08	-1.21104E-001	-1.87671E-005	0.00000E+000	-1.21000E-001	7.12178E-005	10	...........
	12710	254.22	-1.14093E-001	-1.84185E-005	0.00000E+000	-1.14000E-001	6.04590E-005	10	...........
	12717	254.36	-1.06951E-001	-1.77812E-005	0.00000E+000	-1.07000E-001	6.27942E-005	10	...........
	12724	254.5	-1.00133E-001	-1.73425E-005	0.00000E+000	-1.00000E-001	6.34615E-005	10	...........
	12731	254.64	-9.31658E-002	-1.65135E-005	0.00000E+000	-9.30000E-002	6.67975E-005	10	...........
	12738	254.78	-8.60474E-002	-1.63100E-005	0.00000E+000	-8.60000E-002	6.64639E-005	10	...........
	12745	254.92	-7.91021E-002	-1.55593E-005	0.00000E+000	-7.90000E-002	6.42121E-005	10	...........
	12752	255.06	-7.21908E-002	-1.49755E-005	0.00000E+000	-7.20000E-002	6.62971E-005	10	...........
	12759	255.2	-6.51771E-002	-1.49054E-005	0.00000E+000	-6.50000E-002	6.41287E-005	10	...........
	12766	255.34	-5.80806E-002	-1.42315E-005	0.00000E+000	-5.80000E-002	6.41287E-005	10	...........
	12773	255.48	-5.10928E-002	-1.31772E-005	0.00000E+000	-5.10000E-002	6.15432E-005	10	...........
	12780	255.62	-4.41692E-002	-1.25650E-005	0.00000E+000	-4.40000E-002	6.41287E-005	10	...........
	12787	255.76	-3.72045E-002	-1.23665E-005	0.00000E+000	-3.70000E-002	6.43789E-005	10	...........
	12794	255.9	-3.00504E-002	-1.14140E-005	0.00000E+000	-3.00000E-002	6.03756E-005	10	...........
	12801	256.04	-2.31778E-002	-1.11755E-005	0.00000E+000	-2.30000E-002	6.33781E-005	10	...........
	12808	256.18	-1.62143E-002	-1.06767E-005	0.00000E+000	-1.60000E-002	6.77983E-005	10	...........
	12815	256.32	-9.19563E-003	-1.05716E-005	0.00000E+000	-8.99999E-003	6.59635E-005	10	...........
	12822	256.46	-2.11792E-003	-1.04482E-005	0.00000E+000	-1.99999E-003	7.12178E-005	10	...........
	12829	256.6	4.68940E-003	-9.60746E-006	0.00000E+000	5.00001E-003	6.20436E-005	10	...........
	12836	256.74	1.17126E-002	-9.18042E-006	0.00000E+000	1.20000E-002	6.81320E-005	10	...........
	12843	256.88	1.87615E-002	-8.74671E-006	0.00000E+000	1.90000E-002	7.37198E-005	10	...........
	12850	257.02	2.59234E-002	-8.57322E-006	0.00000E+000	2.60000E-002	6.27108E-005	10	...........
	12857	257.16	3.27321E-002	-8.00773E-006	0.00000E+000	3.30000E-002	6.37951E-005	10	...........
	12864	257.3	3.96662E-002	-7.83758E-006	0.00000E+000	4.00000E-002	7.10510E-005	10	...........
	12871	257.44	4.67838E-002	-6.90510E-006	0.00000E+000	4.70000E-002	6.59635E-005	10	...........
	12878	257.58	5.37428E-002	-7.02854E-006	0.00000E+000	5.40000E-002	6.88826E-005	10	...........
	12885	257.72	6.06895E-002	-6.68825E-006	0.00000E+000	6.10000E-002	6.55465E-005	10	...........
	12892	257.86	6.77320E-002	-5.53725E-006	0.00000E+000	6.80000E-002	6.10428E-005	10	...........
	12899	258	7.47429E-002	-5.51389E-006	0.00000E+000	7.50000E-002	6.27942E-005	10	...........
	12906	258.14	8.17419E-002	-4.53137E-006	0.00000E+000	8.20000E-002	5.75399E-005	10	...........
	12913	258.28	8.86690E-002	-4.38958E-006	0.00000E+000	8.90000E-002	6.95498E-005	10	...........
	12920	258.42	9.56966E-002	-4.47966E-006	0.00000E+000	9.60000E-002	6.87992E-005	10	...........
	12927	258.56	1.02766E-001	-4.31452E-006	0.00000E+000	1.03000E-001	6.68809E-005	10	...........
	12934	258.7	1.09644E-001	-3.88581E-006	0.00000E+000	1.10000E-001	6.36283E-005	10	...........
	12941	258.84	1.16716E-001	-3.74902E-006	0.00000E+000	1.17000E-001	6.76315E-005	10	...........
	12948	258.98	1.23695E-001	-2.65640E-006	0.00000E+000	1.24000E-001	7.08008E-005	10	...........
	12955	259.12	1.30712E-001	-2.46290E-006	0.00000E+000	1.31000E-001	6.87992E-005	10	...........
	12962	259.26	1.37631E-001	-1.57380E-006	0.00000E+000	1.38000E-001	6.02088E-005	10	...........
	12969	259.4	1.44635E-001	-1.50874E-006	0.00000E+000	1.45000E-001	7.22186E-005	10	...........
	12976	259.54	1.51628E-001	-1.46203E-006	0.00000E+000	1.52000E-001	6.47959E-005	10	...........
	12983	259.68	1.58729E-001	-9.18225E-007	0.00000E+000	1.59000E-001	5.77067E-005	10	...........
	12990	259.82	1.65592E-001	-2.49309E-007	0.00000E+000	1.66000E-001	6.03756E-005	10	...........
	12997	259.96	1.72602E-001	2.37782E-007	0.00000E+000	1.73000E-001	6.88826E-005	10	...........
	13000	260.02	1.75620E-001	8.41641E-007	0.00000E+000	1.76000E-001	6.67975E-005	10	...........