File: 20191209/CVTESTKRISTALL3BOX6_2.DTA
EXPLAIN
TAG	CV
TITLE	LABEL	CV	Test &Identifier
DATE	LABEL	12/9/2019	Date
TIME	LABEL	14:06:09	Time
NOTES	NOTES	1	&Notes...

PSTAT	PSTAT	REF600-16093	Potentiostat
VINIT	POTEN	0.00000E+000	T	Initial &E (V)
VLIMIT1	POTEN	8.00000E-001	F	Scan Limit &1 (V)
VLIMIT2	POTEN	-6.00000E-001	F	Scan Limit &2 (V)
VFINAL	POTEN	0.00000E+000	T	Final &E (V)
SCANRATE	QUANT	4.99999E+001	&Scan Rate (mV/s)
STEPSIZE	QUANT	1.00000E+000	St&ep Size (mV)
CYCLES	IQUANT	5	C&ycles (#)
IMODE	SELECTOR	1	I/E Range &Mode
IRANGE	QUANT	1.50000E+001	&Max Current (mA)
AREA	QUANT	1.00000E+000	Electrode &Area (cm^2)
ELECTRODETYPE	SELECTOR	0	Electrode Type
STRIPPING	TOGGLE	F	Used for Stripping
POLARITY	TOGGLE	F	Signal Polarity
CONDIT	TWOPARAM	F	1.50000E+001	0.00000E+000	Conditionin&g	Time(s)	E(V)
DELAY	TWOPARAM	T	5.00000E+000	0.00000E+000	Init. De&lay	Time(s)	Stab.(mV/s)
EQDELAY	QUANT	3.00000E+000	Equil. &Time (s)
IRCOMP	SELECTOR	0	IRCom&p
PFCOR	QUANT	0.00000E+000	PF Corr. (ohm)
SAMPLINGMODE	SELECTOR	2	Sampling &Mode
OCVCURVE	TABLE	20
	Pt	T	Vf	Vm	Ach	Over
	#	s	V vs. Ref.	V	V	bits
	0	0.25	1.39323E-001	1.39323E-001	5.99339E-005	...........
	1	0.5	1.39322E-001	1.39273E-001	6.13505E-005	...........
	2	0.75	1.39318E-001	1.39343E-001	6.42671E-005	...........
	3	1	1.39312E-001	1.39220E-001	6.52255E-005	...........
	4	1.25	1.39303E-001	1.39301E-001	6.86838E-005	...........
	5	1.5	1.39292E-001	1.39297E-001	6.18505E-005	...........
	6	1.75	1.39283E-001	1.39192E-001	6.13089E-005	...........
	7	2	1.39273E-001	1.39210E-001	6.03922E-005	...........
	8	2.25	1.39256E-001	1.39182E-001	6.28922E-005	...........
	9	2.5	1.39233E-001	1.39231E-001	6.45588E-005	...........
	10	2.75	1.39213E-001	1.39110E-001	6.31838E-005	...........
	11	3	1.39198E-001	1.39199E-001	6.17672E-005	...........
	12	3.25	1.39185E-001	1.39207E-001	6.44338E-005	...........
	13	3.5	1.39179E-001	1.39163E-001	6.25588E-005	...........
	14	3.75	1.39180E-001	1.39215E-001	6.11005E-005	...........
	15	4	1.39184E-001	1.39122E-001	6.18922E-005	...........
	16	4.25	1.39183E-001	1.39190E-001	6.20589E-005	...........
	17	4.5	1.39176E-001	1.39103E-001	6.50588E-005	...........
	18	4.75	1.39165E-001	1.39137E-001	6.55588E-005	...........
	19	5	1.39151E-001	1.39118E-001	6.37672E-005	...........
EOC	QUANT	0.139151	Open Circuit (V)
PSTATMODEL	IQUANT	4	Pstat Model
PSTATSECTION	LABEL	REF600-16093	Pstat Section
PSTATSERIALNO	LABEL	16093	Pstat Serial Number
CTRLMODE	IQUANT	1	Control Mode
IESTAB	IQUANT	2	I/E Stability
CASPEED	IQUANT	2	Control Amp Speed
CONVENTION	IQUANT	1	Current Convention
ICHRANGE	IQUANT	2	Ich Range
ICHRANGEMODE	TOGGLE	F	Ich Auto Range
ICHOFFSETENABLE	TOGGLE	F	Ich Offset Enable
ICHOFFSET	QUANT	0	Ich Offset (V)
ICHFILTER	IQUANT	2	Ich Filter
VCHRANGE	IQUANT	2	Vch Range
VCHRANGEMODE	TOGGLE	F	Vch Auto Range
VCHOFFSETENABLE	TOGGLE	F	Vch Offset Enable
VCHOFFSET	QUANT	0	Vch Offset (V)
VCHFILTER	IQUANT	2	Vch Filter
ACHRANGE	IQUANT	2	Ach Range
ACHOFFSETENABLE	TOGGLE	F	Ach Offset Enable
ACHOFFSET	QUANT	0	Ach Offset (V)
ACHFILTER	IQUANT	1	Ach Filter
IERANGELOWERLIMIT	IQUANT	1	I/E Range Lower Limit
IERANGEMODE	TOGGLE	F	I/E AutoRange
IERANGE	IQUANT	10	I/E Range
POSFEEDENABLE	TOGGLE	F	Positive Feedback IR Comp
POSFEEDRESISTANCE	QUANT	0	Positive Feedback Resistance (ohm)
ACHSELECT	IQUANT	0	Ach Select
CABLEID	IQUANT	14	Cable ID
DCCALDATE	LABEL	11/5/2019	DC Calibration Date
ACCALDATE	LABEL		AC Calibration Date
THERMOSELECT	IQUANT	1	Thermo Select
FRAMEWORKVERSION	QUANT	6.12	Framework Version
INSTRUMENTVERSION	LABEL	3.11	Instrument Version
CURVE1	TABLE
	Pt	T	Vf	Im	Vu	Sig	Ach	IERange	Over
	#	s	V vs. Ref.	A	V	V	V	#	bits
	0	0.02	1.38664E-001	-2.64322E-007	0.00000E+000	1.39150E-001	8.59799E-005	10	...........
	19	0.4	1.57711E-001	7.61571E-007	0.00000E+000	1.58150E-001	9.03168E-005	10	...........
	38	0.78	1.76706E-001	1.52390E-006	0.00000E+000	1.77150E-001	8.28106E-005	10	...........
	57	1.16	1.95678E-001	1.57061E-006	0.00000E+000	1.96150E-001	9.86569E-005	10	...........
	76	1.54	2.14660E-001	1.62399E-006	0.00000E+000	2.15150E-001	9.52374E-005	10	...........
	95	1.92	2.33587E-001	2.03435E-006	0.00000E+000	2.34150E-001	9.31524E-005	10	...........
	114	2.3	2.52576E-001	2.38966E-006	0.00000E+000	2.53150E-001	9.43200E-005	10	...........
	133	2.68	2.71501E-001	2.64655E-006	0.00000E+000	2.72150E-001	8.94827E-005	10	...........
	152	3.06	2.90548E-001	3.49061E-006	0.00000E+000	2.91150E-001	8.88155E-005	10	...........
	171	3.44	3.09553E-001	4.23793E-006	0.00000E+000	3.10150E-001	8.54795E-005	10	...........
	190	3.82	3.28569E-001	5.04030E-006	0.00000E+000	3.29150E-001	9.23184E-005	10	...........
	209	4.2	3.47566E-001	5.91773E-006	0.00000E+000	3.48150E-001	8.88989E-005	10	...........
	228	4.58	3.66563E-001	6.74345E-006	0.00000E+000	3.67150E-001	8.66471E-005	10	...........
	247	4.96	3.85483E-001	8.54501E-006	0.00000E+000	3.86150E-001	8.43953E-005	10	...........
	266	5.34	4.04493E-001	1.03399E-005	0.00000E+000	4.05150E-001	8.36446E-005	10	...........
	285	5.72	4.23374E-001	1.28187E-005	0.00000E+000	4.24150E-001	8.53961E-005	10	...........
	304	6.1	4.42431E-001	1.62484E-005	0.00000E+000	4.43150E-001	8.88155E-005	10	...........
	323	6.48	4.61414E-001	1.89291E-005	0.00000E+000	4.62150E-001	9.14844E-005	10	...........
	342	6.86	4.80449E-001	2.30810E-005	0.00000E+000	4.81150E-001	8.99832E-005	10	...........
	361	7.24	4.99426E-001	2.68576E-005	0.00000E+000	5.00150E-001	9.11508E-005	10	...........
	380	7.62	5.18355E-001	3.09612E-005	0.00000E+000	5.19150E-001	8.30608E-005	10	...........
	399	8	5.37364E-001	3.44859E-005	0.00000E+000	5.38150E-001	8.99832E-005	10	...........
	418	8.38	5.56236E-001	3.82425E-005	0.00000E+000	5.57150E-001	8.73143E-005	10	...........
	437	8.76	5.75318E-001	4.12485E-005	0.00000E+000	5.76150E-001	9.24018E-005	10	...........
	456	9.14	5.94314E-001	4.53454E-005	0.00000E+000	5.95150E-001	8.75645E-005	10	...........
	475	9.52	6.13334E-001	4.82963E-005	0.00000E+000	6.14150E-001	9.04836E-005	10	...........
	494	9.9	6.32367E-001	5.18561E-005	0.00000E+000	6.33150E-001	8.98998E-005	10	...........
	513	10.28	6.51202E-001	5.35776E-005	0.00000E+000	6.52150E-001	8.71475E-005	10	...........
	532	10.66	6.70184E-001	5.56310E-005	0.00000E+000	6.71150E-001	9.64885E-005	10	...........
	551	11.04	6.89206E-001	5.70739E-005	0.00000E+000	6.90150E-001	9.21516E-005	10	...........
	570	11.42	7.08167E-001	5.75544E-005	0.00000E+000	7.09150E-001	9.42366E-005	10	...........
	589	11.8	7.27166E-001	5.87370E-005	0.00000E+000	7.28150E-001	9.12342E-005	10	...........
	608	12.18	7.46172E-001	5.89622E-005	0.00000E+000	7.47150E-001	9.99079E-005	10	...........
	627	12.56	7.65187E-001	5.95528E-005	0.00000E+000	7.66150E-001	8.32276E-005	10	...........
	646	12.94	7.84245E-001	6.09056E-005	0.00000E+000	7.85150E-001	8.96496E-005	10	...........
	665	13.32	7.95145E-001	5.37527E-005	0.00000E+000	7.96150E-001	8.66471E-005	10	...........
	684	13.7	7.76248E-001	3.34767E-005	0.00000E+000	7.77150E-001	8.93159E-005	10	...........
	703	14.08	7.57188E-001	2.27057E-005	0.00000E+000	7.58150E-001	8.67305E-005	10	...........
	722	14.46	7.38212E-001	1.56479E-005	0.00000E+000	7.39150E-001	8.41450E-005	10	...........
	741	14.84	7.19205E-001	1.19697E-005	0.00000E+000	7.20150E-001	8.73143E-005	10	...........
	760	15.22	7.00187E-001	8.54835E-006	0.00000E+000	7.01150E-001	8.73977E-005	10	...........
	779	15.6	6.81141E-001	6.48155E-006	0.00000E+000	6.82150E-001	9.54877E-005	10	...........
	798	15.98	6.62222E-001	4.89183E-006	0.00000E+000	6.63150E-001	9.18180E-005	10	...........
	817	16.36	6.43286E-001	3.37385E-006	0.00000E+000	6.44150E-001	8.96496E-005	10	...........
	836	16.74	6.24325E-001	2.72828E-006	0.00000E+000	6.25150E-001	8.87321E-005	10	...........
	855	17.12	6.05327E-001	1.51556E-006	0.00000E+000	6.06150E-001	9.21516E-005	10	...........
	874	17.5	5.86359E-001	5.68069E-007	0.00000E+000	5.87150E-001	8.43953E-005	10	...........
	893	17.88	5.67355E-001	2.11092E-007	0.00000E+000	5.68150E-001	9.43200E-005	10	...........
	912	18.26	5.48314E-001	-2.22619E-007	0.00000E+000	5.49150E-001	7.88907E-005	10	...........
	931	18.64	5.29361E-001	-5.97946E-007	0.00000E+000	5.30150E-001	9.31524E-005	10	...........
	950	19.02	5.10364E-001	-1.02999E-006	0.00000E+000	5.11150E-001	8.57297E-005	10	...........
	969	19.4	4.91495E-001	-1.99083E-006	0.00000E+000	4.92150E-001	8.83985E-005	10	...........
	988	19.78	4.72414E-001	-1.66387E-006	0.00000E+000	4.73150E-001	9.48205E-005	10	...........
	1007	20.16	4.53444E-001	-2.98502E-006	0.00000E+000	4.54150E-001	9.26520E-005	10	...........
	1026	20.54	4.34492E-001	-3.12848E-006	0.00000E+000	4.35150E-001	9.37362E-005	10	...........
	1045	20.92	4.15412E-001	-3.80240E-006	0.00000E+000	4.16150E-001	9.34860E-005	10	...........
	1064	21.3	3.96457E-001	-5.11354E-006	0.00000E+000	3.97150E-001	9.45702E-005	10	...........
	1083	21.68	3.77505E-001	-5.70739E-006	0.00000E+000	3.78150E-001	8.11426E-005	10	...........
	1102	22.06	3.58635E-001	-6.43469E-006	0.00000E+000	3.59150E-001	8.95661E-005	10	...........
	1121	22.44	3.39569E-001	-7.96102E-006	0.00000E+000	3.40150E-001	8.63969E-005	10	...........
	1140	22.82	3.20523E-001	-8.87515E-006	0.00000E+000	3.21150E-001	9.03168E-005	10	...........
	1159	23.2	3.01556E-001	-9.69253E-006	0.00000E+000	3.02150E-001	8.21434E-005	10	...........
	1178	23.58	2.82572E-001	-1.06283E-005	0.00000E+000	2.83150E-001	8.98163E-005	10	...........
	1197	23.96	2.63566E-001	-1.22464E-005	0.00000E+000	2.64150E-001	8.56463E-005	10	...........
	1216	24.34	2.44534E-001	-1.41664E-005	0.00000E+000	2.45150E-001	9.05670E-005	10	...........
	1235	24.72	2.25725E-001	-1.64367E-005	0.00000E+000	2.26150E-001	8.45620E-005	10	...........
	1254	25.1	2.06756E-001	-1.87187E-005	0.00000E+000	2.07150E-001	9.42366E-005	10	...........
	1273	25.48	1.87677E-001	-2.17397E-005	0.00000E+000	1.88150E-001	9.00666E-005	10	...........
	1292	25.86	1.68688E-001	-2.56164E-005	0.00000E+000	1.69150E-001	8.58131E-005	10	...........
	1311	26.24	1.49720E-001	-3.00953E-005	0.00000E+000	1.50150E-001	9.17346E-005	10	...........
	1330	26.62	1.30628E-001	-3.49946E-005	0.00000E+000	1.31150E-001	8.81483E-005	10	...........
	1349	27	1.11679E-001	-3.91298E-005	0.00000E+000	1.12150E-001	9.02334E-005	10	...........
	1368	27.38	9.27399E-002	-4.44978E-005	0.00000E+000	9.31500E-002	8.46455E-005	10	...........
	1387	27.76	7.39173E-002	-4.82261E-005	0.00000E+000	7.41500E-002	9.33192E-005	10	...........
	1406	28.14	5.48126E-002	-5.22079E-005	0.00000E+000	5.51500E-002	8.50625E-005	10	...........
	1425	28.52	3.57781E-002	-5.46133E-005	0.00000E+000	3.61500E-002	9.26520E-005	10	...........
	1444	28.9	1.68403E-002	-5.74808E-005	0.00000E+000	1.71500E-002	8.38114E-005	10	...........
	1463	29.28	-2.18481E-003	-5.99730E-005	0.00000E+000	-1.84999E-003	8.53961E-005	10	...........
	1482	29.66	-2.11412E-002	-6.22416E-005	0.00000E+000	-2.08500E-002	8.98163E-005	10	...........
	1501	30.04	-4.01304E-002	-6.46237E-005	0.00000E+000	-3.98500E-002	8.32276E-005	10	...........
	1520	30.42	-5.90515E-002	-6.59765E-005	0.00000E+000	-5.88500E-002	8.18098E-005	10	...........
	1539	30.8	-7.80384E-002	-6.57930E-005	0.00000E+000	-7.78500E-002	8.47289E-005	10	...........
	1558	31.18	-9.70749E-002	-6.52225E-005	0.00000E+000	-9.68500E-002	9.01500E-005	10	...........
	1577	31.56	-1.16079E-001	-6.32108E-005	0.00000E+000	-1.15850E-001	8.44786E-005	10	...........
	1596	31.94	-1.35038E-001	-6.14209E-005	0.00000E+000	-1.34850E-001	9.40698E-005	10	...........
	1615	32.32	-1.54066E-001	-6.03216E-005	0.00000E+000	-1.53850E-001	9.54877E-005	10	...........
	1634	32.7	-1.73054E-001	-5.86034E-005	0.00000E+000	-1.72850E-001	9.29856E-005	10	...........
	1653	33.08	-1.92031E-001	-5.71822E-005	0.00000E+000	-1.91850E-001	8.48123E-005	10	...........
	1672	33.46	-2.10865E-001	-5.60162E-005	0.00000E+000	-2.10850E-001	8.33944E-005	10	...........
	1691	33.84	-2.29930E-001	-5.51171E-005	0.00000E+000	-2.29850E-001	9.34026E-005	10	...........
	1710	34.22	-2.48932E-001	-5.45232E-005	0.00000E+000	-2.48850E-001	8.54795E-005	10	...........
	1729	34.6	-2.67970E-001	-5.40545E-005	0.00000E+000	-2.67850E-001	8.21434E-005	10	...........
	1748	34.98	-2.86969E-001	-5.32688E-005	0.00000E+000	-2.86850E-001	8.77313E-005	10	...........
	1767	35.36	-3.05927E-001	-5.27984E-005	0.00000E+000	-3.05850E-001	9.42366E-005	10	...........
	1786	35.74	-3.24883E-001	-5.29352E-005	0.00000E+000	-3.24850E-001	8.70641E-005	10	...........
	1805	36.12	-3.43689E-001	-5.28534E-005	0.00000E+000	-3.43850E-001	8.88155E-005	10	...........
	1824	36.5	-3.62796E-001	-5.34506E-005	0.00000E+000	-3.62850E-001	9.52374E-005	10	...........
	1843	36.88	-3.81801E-001	-5.42730E-005	0.00000E+000	-3.81850E-001	9.18180E-005	10	...........
	1862	37.26	-4.00838E-001	-5.57176E-005	0.00000E+000	-4.00850E-001	8.35612E-005	10	...........
	1881	37.64	-4.19843E-001	-5.74841E-005	0.00000E+000	-4.19850E-001	8.76479E-005	10	...........
	1900	38.02	-4.38771E-001	-6.01731E-005	0.00000E+000	-4.38850E-001	8.76479E-005	10	...........
	1919	38.4	-4.57764E-001	-6.40632E-005	0.00000E+000	-4.57850E-001	8.27272E-005	10	...........
	1938	38.78	-4.76746E-001	-6.97348E-005	0.00000E+000	-4.76850E-001	7.81401E-005	10	...........
	1957	39.16	-4.95638E-001	-7.65941E-005	0.00000E+000	-4.95850E-001	8.33110E-005	10	...........
	1976	39.54	-5.14663E-001	-8.50281E-005	0.00000E+000	-5.14850E-001	8.59799E-005	10	...........
	1995	39.92	-5.33672E-001	-9.59777E-005	0.00000E+000	-5.33850E-001	8.23936E-005	10	...........
	2014	40.3	-5.52684E-001	-1.07826E-004	0.00000E+000	-5.52850E-001	8.59799E-005	10	...........
	2033	40.68	-5.71751E-001	-1.20739E-004	0.00000E+000	-5.71850E-001	8.61467E-005	10	...........
	2052	41.06	-5.90649E-001	-1.36049E-004	0.00000E+000	-5.90850E-001	9.00666E-005	10	...........
	2061	41.24	-5.99594E-001	-1.47064E-004	0.00000E+000	-5.99850E-001	7.94746E-005	10	...........
CURVE2	TABLE
	Pt	T	Vf	Im	Vu	Sig	Ach	IERange	Over
	#	s	V vs. Ref.	A	V	V	V	#	bits
	2062	41.26	-5.98893E-001	-1.27550E-004	0.00000E+000	-5.99000E-001	8.17264E-005	10	...........
	2089	41.8	-5.71837E-001	-4.86982E-005	0.00000E+000	-5.72000E-001	8.74811E-005	10	...........
	2116	42.34	-5.44814E-001	-3.32781E-005	0.00000E+000	-5.45000E-001	7.24688E-005	10	...........
	2143	42.88	-5.17845E-001	-2.72128E-005	0.00000E+000	-5.18000E-001	8.38948E-005	10	...........
	2170	43.42	-4.90819E-001	-2.56397E-005	0.00000E+000	-4.91000E-001	7.63053E-005	10	...........
	2197	43.96	-4.63832E-001	-2.44254E-005	0.00000E+000	-4.64000E-001	8.48123E-005	10	...........
	2224	44.5	-4.36930E-001	-2.50292E-005	0.00000E+000	-4.37000E-001	7.35530E-005	10	...........
	2251	45.04	-4.09956E-001	-2.54296E-005	0.00000E+000	-4.10000E-001	8.58965E-005	10	...........
	2278	45.58	-3.83023E-001	-2.51827E-005	0.00000E+000	-3.83000E-001	8.39782E-005	10	...........
	2305	46.12	-3.55989E-001	-2.48090E-005	0.00000E+000	-3.56000E-001	7.73061E-005	10	...........
	2332	46.66	-3.28999E-001	-2.31276E-005	0.00000E+000	-3.29000E-001	8.44786E-005	10	...........
	2359	47.2	-3.02038E-001	-2.10241E-005	0.00000E+000	-3.02000E-001	8.08090E-005	10	...........
	2386	47.74	-2.75046E-001	-1.84301E-005	0.00000E+000	-2.75000E-001	8.58965E-005	10	...........
	2413	48.28	-2.48097E-001	-1.68321E-005	0.00000E+000	-2.48000E-001	7.38866E-005	10	...........
	2440	48.82	-2.21135E-001	-1.43616E-005	0.00000E+000	-2.21000E-001	8.53127E-005	10	...........
	2467	49.36	-1.94170E-001	-1.23966E-005	0.00000E+000	-1.94000E-001	7.95580E-005	10	...........
	2494	49.9	-1.67196E-001	-1.05533E-005	0.00000E+000	-1.67000E-001	8.10592E-005	10	...........
	2521	50.44	-1.40221E-001	-9.12537E-006	0.00000E+000	-1.40000E-001	7.48041E-005	10	...........
	2548	50.98	-1.13233E-001	-7.97770E-006	0.00000E+000	-1.13000E-001	8.13928E-005	10	...........
	2575	51.52	-8.61243E-002	-6.34462E-006	0.00000E+000	-8.60000E-002	7.99750E-005	10	...........
	2602	52.06	-5.92633E-002	-4.29617E-006	0.00000E+000	-5.90000E-002	7.14680E-005	10	...........
	2629	52.6	-3.22825E-002	-3.51382E-006	0.00000E+000	-3.20000E-002	8.18098E-005	10	...........
	2656	53.14	-5.33864E-003	-2.92998E-006	0.00000E+000	-5.00000E-003	7.86405E-005	10	...........
	2683	53.68	2.16852E-002	-2.04254E-006	0.00000E+000	2.20000E-002	8.13094E-005	10	...........
	2710	54.22	4.86536E-002	-7.21387E-007	0.00000E+000	4.90000E-002	7.79733E-005	10	...........
	2737	54.76	7.56427E-002	-5.32889E-007	0.00000E+000	7.60000E-002	8.76479E-005	10	...........
	2764	55.3	1.02721E-001	7.08191E-007	0.00000E+000	1.03000E-001	8.15596E-005	10	...........
	2791	55.84	1.29549E-001	1.68070E-006	0.00000E+000	1.30000E-001	8.40616E-005	10	...........
	2818	56.38	1.56520E-001	2.11775E-006	0.00000E+000	1.57000E-001	8.28940E-005	10	...........
	2845	56.92	1.83471E-001	3.11028E-006	0.00000E+000	1.84000E-001	8.03086E-005	10	...........
	2872	57.46	2.10487E-001	3.56902E-006	0.00000E+000	2.11000E-001	8.12260E-005	10	...........
	2899	58	2.37456E-001	3.62573E-006	0.00000E+000	2.38000E-001	8.31442E-005	10	...........
	2926	58.54	2.64449E-001	5.35057E-006	0.00000E+000	2.65000E-001	8.29774E-005	10	...........
	2953	59.08	2.91499E-001	6.57497E-006	0.00000E+000	2.92000E-001	7.33862E-005	10	...........
	2980	59.62	3.18350E-001	7.72764E-006	0.00000E+000	3.19000E-001	7.98916E-005	10	...........
	3007	60.16	3.45334E-001	9.33403E-006	0.00000E+000	3.46000E-001	8.03920E-005	10	...........
	3034	60.7	3.72262E-001	1.15576E-005	0.00000E+000	3.73000E-001	7.65555E-005	10	...........
[...]
	13302	266.06	-5.58774E-001	-2.89226E-005	0.00000E+000	-5.59000E-001	5.17852E-005	10	...........
	13310	266.22	-5.50808E-001	-2.69125E-005	0.00000E+000	-5.51000E-001	5.04508E-005	10	...........
	13318	266.38	-5.42775E-001	-2.64688E-005	0.00000E+000	-5.43000E-001	4.83658E-005	10	...........
	13326	266.54	-5.34803E-001	-2.46872E-005	0.00000E+000	-5.35000E-001	4.22775E-005	10	...........
	13334	266.7	-5.26816E-001	-2.56548E-005	0.00000E+000	-5.27000E-001	5.15350E-005	10	...........
	13342	266.86	-5.18841E-001	-2.47056E-005	0.00000E+000	-5.19000E-001	5.05342E-005	10	...........
	13350	267.02	-5.10886E-001	-2.52160E-005	0.00000E+000	-5.11000E-001	5.45375E-005	10	...........
	13358	267.18	-5.02852E-001	-2.43736E-005	0.00000E+000	-5.03000E-001	4.59471E-005	10	...........
	13366	267.34	-4.94900E-001	-2.47473E-005	0.00000E+000	-4.95000E-001	5.36201E-005	10	...........
	13374	267.5	-4.86843E-001	-2.47840E-005	0.00000E+000	-4.87000E-001	5.49545E-005	10	...........
	13382	267.66	-4.78866E-001	-2.53278E-005	0.00000E+000	-4.79000E-001	5.17018E-005	10	...........
	13390	267.82	-4.70935E-001	-2.58449E-005	0.00000E+000	-4.71000E-001	5.47043E-005	10	...........
	13398	267.98	-4.62891E-001	-2.51326E-005	0.00000E+000	-4.63000E-001	5.52047E-005	10	...........
	13406	268.14	-4.54882E-001	-2.53662E-005	0.00000E+000	-4.55000E-001	4.98670E-005	10	...........
	13414	268.3	-4.46952E-001	-2.53128E-005	0.00000E+000	-4.47000E-001	4.86994E-005	10	...........
	13422	268.46	-4.38897E-001	-2.58599E-005	0.00000E+000	-4.39000E-001	5.93748E-005	10	...........
	13430	268.62	-4.30906E-001	-2.59850E-005	0.00000E+000	-4.31000E-001	5.31197E-005	10	...........
	13438	268.78	-4.22902E-001	-2.63821E-005	0.00000E+000	-4.23000E-001	4.94500E-005	10	...........
	13446	268.94	-4.14928E-001	-2.60851E-005	0.00000E+000	-4.15000E-001	4.84492E-005	10	...........
	13454	269.1	-4.06974E-001	-2.61102E-005	0.00000E+000	-4.07000E-001	5.46209E-005	10	...........
	13462	269.26	-3.98942E-001	-2.62803E-005	0.00000E+000	-3.99000E-001	5.32031E-005	10	...........
	13470	269.42	-3.90992E-001	-2.62136E-005	0.00000E+000	-3.91000E-001	5.39537E-005	10	...........
	13478	269.58	-3.83005E-001	-2.65672E-005	0.00000E+000	-3.83000E-001	5.36201E-005	10	...........
	13486	269.74	-3.74969E-001	-2.57015E-005	0.00000E+000	-3.75000E-001	5.33699E-005	10	...........
	13494	269.9	-3.67006E-001	-2.56481E-005	0.00000E+000	-3.67000E-001	5.82072E-005	10	...........
	13502	270.06	-3.58984E-001	-2.57065E-005	0.00000E+000	-3.59000E-001	5.23690E-005	10	...........
	13510	270.22	-3.50991E-001	-2.53311E-005	0.00000E+000	-3.51000E-001	5.15350E-005	10	...........
	13518	270.38	-3.43024E-001	-2.53095E-005	0.00000E+000	-3.43000E-001	5.32031E-005	10	...........
	13526	270.54	-3.34996E-001	-2.45321E-005	0.00000E+000	-3.35000E-001	5.82906E-005	10	...........
	13534	270.7	-3.27013E-001	-2.44704E-005	0.00000E+000	-3.27000E-001	5.48711E-005	10	...........
	13542	270.86	-3.19072E-001	-2.38949E-005	0.00000E+000	-3.19000E-001	5.15350E-005	10	...........
	13550	271.02	-3.11017E-001	-2.33694E-005	0.00000E+000	-3.11000E-001	5.52047E-005	10	...........
	13558	271.18	-3.03024E-001	-2.29174E-005	0.00000E+000	-3.03000E-001	5.72897E-005	10	...........
	13566	271.34	-2.95045E-001	-2.25904E-005	0.00000E+000	-2.95000E-001	5.60387E-005	10	...........
	13574	271.5	-2.87052E-001	-2.14244E-005	0.00000E+000	-2.87000E-001	5.62889E-005	10	...........
	13582	271.66	-2.79035E-001	-2.08206E-005	0.00000E+000	-2.79000E-001	5.24525E-005	10	...........
	13590	271.82	-2.71051E-001	-2.02951E-005	0.00000E+000	-2.71000E-001	4.91998E-005	10	...........
	13598	271.98	-2.63038E-001	-1.94710E-005	0.00000E+000	-2.63000E-001	5.51213E-005	10	...........
	13606	272.14	-2.55048E-001	-1.89623E-005	0.00000E+000	-2.55000E-001	5.41205E-005	10	...........
	13614	272.3	-2.47059E-001	-1.76845E-005	0.00000E+000	-2.47000E-001	5.42873E-005	10	...........
	13622	272.46	-2.39031E-001	-1.75160E-005	0.00000E+000	-2.39000E-001	5.26193E-005	10	...........
	13630	272.62	-2.31036E-001	-1.64551E-005	0.00000E+000	-2.31000E-001	5.82072E-005	10	...........
	13638	272.78	-2.23077E-001	-1.58095E-005	0.00000E+000	-2.23000E-001	5.36201E-005	10	...........
	13646	272.94	-2.15074E-001	-1.50122E-005	0.00000E+000	-2.15000E-001	5.51213E-005	10	...........
	13654	273.1	-2.07047E-001	-1.47469E-005	0.00000E+000	-2.07000E-001	5.97918E-005	10	...........
	13662	273.26	-1.99101E-001	-1.40663E-005	0.00000E+000	-1.99000E-001	5.12848E-005	10	...........
	13670	273.42	-1.91122E-001	-1.37811E-005	0.00000E+000	-1.91000E-001	5.46209E-005	10	...........
	13678	273.58	-1.83070E-001	-1.25066E-005	0.00000E+000	-1.83000E-001	5.01172E-005	10	...........
	13686	273.74	-1.75091E-001	-1.20879E-005	0.00000E+000	-1.75000E-001	4.93666E-005	10	...........
	13694	273.9	-1.67137E-001	-1.16809E-005	0.00000E+000	-1.67000E-001	5.07010E-005	10	...........
	13702	274.06	-1.59115E-001	-1.11905E-005	0.00000E+000	-1.59000E-001	5.17018E-005	10	...........
	13710	274.22	-1.51104E-001	-1.05900E-005	0.00000E+000	-1.51000E-001	5.13682E-005	10	...........
	13718	274.38	-1.43132E-001	-1.03481E-005	0.00000E+000	-1.43000E-001	5.87076E-005	10	...........
	13726	274.54	-1.35088E-001	-9.09701E-006	0.00000E+000	-1.35000E-001	5.89578E-005	10	...........
	13734	274.7	-1.27134E-001	-8.91018E-006	0.00000E+000	-1.27000E-001	6.27942E-005	10	...........
	13742	274.86	-1.19154E-001	-9.09034E-006	0.00000E+000	-1.19000E-001	5.52881E-005	10	...........
	13750	275.02	-1.11121E-001	-8.43810E-006	0.00000E+000	-1.11000E-001	5.07844E-005	10	...........
	13758	275.18	-1.03123E-001	-7.89763E-006	0.00000E+000	-1.03000E-001	5.92080E-005	10	...........
	13766	275.34	-9.51794E-002	-7.46059E-006	0.00000E+000	-9.50000E-002	5.01172E-005	10	...........
	13774	275.5	-8.71499E-002	-7.48728E-006	0.00000E+000	-8.70000E-002	5.70395E-005	10	...........
	13782	275.66	-7.91426E-002	-6.52310E-006	0.00000E+000	-7.90000E-002	5.44541E-005	10	...........
	13790	275.82	-7.11953E-002	-5.61064E-006	0.00000E+000	-7.10000E-002	5.02840E-005	10	...........
	13798	275.98	-6.32230E-002	-6.07605E-006	0.00000E+000	-6.30000E-002	4.17770E-005	10	...........
	13806	276.14	-5.51773E-002	-5.47886E-006	0.00000E+000	-5.50000E-002	5.17018E-005	10	...........
	13814	276.3	-4.71858E-002	-4.98677E-006	0.00000E+000	-4.70000E-002	5.32031E-005	10	...........
	13822	276.46	-3.92203E-002	-5.23031E-006	0.00000E+000	-3.90000E-002	4.67811E-005	10	...........
	13830	276.62	-3.11986E-002	-4.94673E-006	0.00000E+000	-3.10000E-002	4.90330E-005	10	...........
	13838	276.78	-2.32137E-002	-4.35955E-006	0.00000E+000	-2.30000E-002	5.23690E-005	10	...........
	13846	276.94	-1.52382E-002	-3.87580E-006	0.00000E+000	-1.50000E-002	5.07010E-005	10	...........
	13854	277.1	-7.22477E-003	-3.88748E-006	0.00000E+000	-7.00000E-003	4.65309E-005	10	...........
	13862	277.26	6.66688E-004	-4.04428E-006	0.00000E+000	1.00000E-003	5.47043E-005	10	...........
	13870	277.42	8.67474E-003	-3.44042E-006	0.00000E+000	9.00000E-003	5.71229E-005	10	...........
	13878	277.58	1.67327E-002	-3.29529E-006	0.00000E+000	1.70000E-002	4.97002E-005	10	...........
	13886	277.74	2.47377E-002	-3.20688E-006	0.00000E+000	2.50000E-002	4.88662E-005	10	...........
	13894	277.9	3.26873E-002	-2.38450E-006	0.00000E+000	3.30000E-002	5.45375E-005	10	...........
	13902	278.06	4.06675E-002	-2.58468E-006	0.00000E+000	4.10000E-002	5.60387E-005	10	...........
	13910	278.22	4.87114E-002	-2.05922E-006	0.00000E+000	4.90000E-002	5.97084E-005	10	...........
	13918	278.38	5.66857E-002	-1.47371E-006	0.00000E+000	5.70000E-002	5.60387E-005	10	...........
	13926	278.54	6.45855E-002	-1.45536E-006	0.00000E+000	6.50000E-002	6.05424E-005	10	...........
	13934	278.7	7.26997E-002	-8.11465E-007	0.00000E+000	7.30000E-002	5.47877E-005	10	...........
	13942	278.86	8.06656E-002	-7.54749E-007	0.00000E+000	8.10000E-002	5.35367E-005	10	...........
	13950	279.02	8.86256E-002	-5.01195E-007	0.00000E+000	8.90000E-002	5.41205E-005	10	...........
	13958	279.18	9.66458E-002	1.39363E-007	0.00000E+000	9.70000E-002	4.98670E-005	10	...........
	13966	279.34	1.04625E-001	4.99676E-007	0.00000E+000	1.05000E-001	5.77901E-005	10	...........
	13974	279.5	1.12602E-001	7.26541E-007	0.00000E+000	1.13000E-001	5.64557E-005	10	...........
	13982	279.66	1.20639E-001	7.39885E-007	0.00000E+000	1.21000E-001	5.62055E-005	10	...........
	13990	279.82	1.28599E-001	7.53230E-007	0.00000E+000	1.29000E-001	6.03756E-005	10	...........
	13998	279.98	1.36586E-001	1.43382E-006	0.00000E+000	1.37000E-001	6.14598E-005	10	...........
	14000	280.02	1.38570E-001	1.84084E-006	0.00000E+000	1.39000E-001	6.06258E-005	10	...........