File: 20191209/CVTESTKRISTALL3BOX6_1.DTA
EXPLAIN
TAG	CV
TITLE	LABEL	CV	Test &Identifier
DATE	LABEL	12/9/2019	Date
TIME	LABEL	12:58:59	Time
NOTES	NOTES	1	&Notes...

PSTAT	PSTAT	REF600-16093	Potentiostat
VINIT	POTEN	0.00000E+000	T	Initial &E (V)
VLIMIT1	POTEN	7.00000E-001	F	Scan Limit &1 (V)
VLIMIT2	POTEN	-6.00000E-001	F	Scan Limit &2 (V)
VFINAL	POTEN	0.00000E+000	T	Final &E (V)
SCANRATE	QUANT	4.99999E+001	&Scan Rate (mV/s)
STEPSIZE	QUANT	1.00000E+000	St&ep Size (mV)
CYCLES	IQUANT	5	C&ycles (#)
IMODE	SELECTOR	1	I/E Range &Mode
IRANGE	QUANT	1.50000E+001	&Max Current (mA)
AREA	QUANT	1.00000E+000	Electrode &Area (cm^2)
ELECTRODETYPE	SELECTOR	0	Electrode Type
STRIPPING	TOGGLE	F	Used for Stripping
POLARITY	TOGGLE	F	Signal Polarity
CONDIT	TWOPARAM	F	1.50000E+001	0.00000E+000	Conditionin&g	Time(s)	E(V)
DELAY	TWOPARAM	T	5.00000E+000	0.00000E+000	Init. De&lay	Time(s)	Stab.(mV/s)
EQDELAY	QUANT	3.00000E+000	Equil. &Time (s)
IRCOMP	SELECTOR	0	IRCom&p
PFCOR	QUANT	0.00000E+000	PF Corr. (ohm)
SAMPLINGMODE	SELECTOR	2	Sampling &Mode
OCVCURVE	TABLE	20
	Pt	T	Vf	Vm	Ach	Over
	#	s	V vs. Ref.	V	V	bits
	0	0.25	-1.40785E-001	-1.40785E-001	6.96004E-005	...........
	1	0.5	-1.40778E-001	-1.40425E-001	6.89337E-005	...........
	2	0.75	-1.40719E-001	-1.39157E-001	6.56838E-005	...........
	3	1	-1.40497E-001	-1.38297E-001	6.79338E-005	...........
	4	1.25	-1.40098E-001	-1.41729E-001	6.73504E-005	...........
	5	1.5	-1.39730E-001	-1.37227E-001	6.87254E-005	...........
	6	1.75	-1.39515E-001	-1.39412E-001	6.61005E-005	...........
	7	2	-1.39383E-001	-1.42193E-001	6.23088E-005	...........
	8	2.25	-1.39384E-001	-1.36377E-001	6.41422E-005	...........
	9	2.5	-1.39445E-001	-1.38986E-001	6.32255E-005	...........
	10	2.75	-1.39312E-001	-1.40318E-001	6.61005E-005	...........
	11	3	-1.39063E-001	-1.37020E-001	6.03089E-005	...........
	12	3.25	-1.38902E-001	-1.39654E-001	6.82671E-005	...........
	13	3.5	-1.38850E-001	-1.41006E-001	6.70171E-005	...........
	14	3.75	-1.39002E-001	-1.39545E-001	6.04755E-005	...........
	15	4	-1.39379E-001	-1.39719E-001	6.89754E-005	...........
	16	4.25	-1.39749E-001	-1.41077E-001	6.85171E-005	...........
	17	4.5	-1.39944E-001	-1.37628E-001	5.91422E-005	...........
	18	4.75	-1.39929E-001	-1.40405E-001	7.09754E-005	...........
	19	5	-1.39780E-001	-1.41198E-001	7.01837E-005	...........
EOC	QUANT	-0.13978	Open Circuit (V)
PSTATMODEL	IQUANT	4	Pstat Model
PSTATSECTION	LABEL	REF600-16093	Pstat Section
PSTATSERIALNO	LABEL	16093	Pstat Serial Number
CTRLMODE	IQUANT	1	Control Mode
IESTAB	IQUANT	2	I/E Stability
CASPEED	IQUANT	2	Control Amp Speed
CONVENTION	IQUANT	1	Current Convention
ICHRANGE	IQUANT	2	Ich Range
ICHRANGEMODE	TOGGLE	F	Ich Auto Range
ICHOFFSETENABLE	TOGGLE	F	Ich Offset Enable
ICHOFFSET	QUANT	0	Ich Offset (V)
ICHFILTER	IQUANT	2	Ich Filter
VCHRANGE	IQUANT	2	Vch Range
VCHRANGEMODE	TOGGLE	F	Vch Auto Range
VCHOFFSETENABLE	TOGGLE	F	Vch Offset Enable
VCHOFFSET	QUANT	0	Vch Offset (V)
VCHFILTER	IQUANT	2	Vch Filter
ACHRANGE	IQUANT	2	Ach Range
ACHOFFSETENABLE	TOGGLE	F	Ach Offset Enable
ACHOFFSET	QUANT	0	Ach Offset (V)
ACHFILTER	IQUANT	1	Ach Filter
IERANGELOWERLIMIT	IQUANT	1	I/E Range Lower Limit
IERANGEMODE	TOGGLE	F	I/E AutoRange
IERANGE	IQUANT	10	I/E Range
POSFEEDENABLE	TOGGLE	F	Positive Feedback IR Comp
POSFEEDRESISTANCE	QUANT	0	Positive Feedback Resistance (ohm)
ACHSELECT	IQUANT	0	Ach Select
CABLEID	IQUANT	14	Cable ID
DCCALDATE	LABEL	11/5/2019	DC Calibration Date
ACCALDATE	LABEL		AC Calibration Date
THERMOSELECT	IQUANT	1	Thermo Select
FRAMEWORKVERSION	QUANT	6.12	Framework Version
INSTRUMENTVERSION	LABEL	3.11	Instrument Version
EXPERIMENTABORTED	TOGGLE	T	Experiment Aborted
CURVE	TABLE	2436
	Pt	T	Vf	Im	Vu	Sig	Ach	IERange	Over	Cycle
	#	s	V vs. Ref.	A	V	V	V	#	bits	#
	0	0.02	-1.39843E-001	-4.95674E-006	0.00000E+000	-1.39800E-001	6.49627E-005	10	...........	0
	24	0.5	-1.15836E-001	-4.92671E-006	0.00000E+000	-1.15800E-001	6.41287E-005	10	...........	0
	48	0.98	-9.18472E-002	-4.91337E-006	0.00000E+000	-9.18000E-002	6.06258E-005	10	...........	0
	72	1.46	-6.78719E-002	-4.70152E-006	0.00000E+000	-6.78000E-002	6.73813E-005	10	...........	0
	96	1.94	-4.38893E-002	-4.45464E-006	0.00000E+000	-4.38000E-002	6.65473E-005	10	...........	0
	120	2.42	-1.98769E-002	-4.77658E-006	0.00000E+000	-1.98000E-002	6.66307E-005	10	...........	0
	144	2.9	4.05963E-003	-4.15438E-006	0.00000E+000	4.20000E-003	6.14598E-005	10	...........	0
	168	3.38	2.80333E-002	-5.04849E-006	0.00000E+000	2.82000E-002	6.52129E-005	10	...........	0
	192	3.86	5.20025E-002	-5.10687E-006	0.00000E+000	5.22000E-002	6.28776E-005	10	...........	0
	216	4.34	7.60143E-002	-4.79493E-006	0.00000E+000	7.62000E-002	5.91246E-005	10	...........	0
	240	4.82	1.00017E-001	-3.09679E-006	0.00000E+000	1.00200E-001	5.83740E-005	10	...........	0
	264	5.3	1.24020E-001	-2.80987E-006	0.00000E+000	1.24200E-001	5.82906E-005	10	...........	0
	288	5.78	1.47963E-001	-3.86579E-006	0.00000E+000	1.48200E-001	5.82072E-005	10	...........	0
	312	6.26	1.71956E-001	-4.47132E-006	0.00000E+000	1.72200E-001	6.74647E-005	10	...........	0
	336	6.74	1.95936E-001	-4.53971E-006	0.00000E+000	1.96200E-001	6.08760E-005	10	...........	0
	360	7.22	2.19933E-001	-3.84577E-006	0.00000E+000	2.20200E-001	6.32113E-005	10	...........	0
	384	7.7	2.43827E-001	-3.93085E-006	0.00000E+000	2.44200E-001	5.92080E-005	10	...........	0
	408	8.18	2.67797E-001	-3.96921E-006	0.00000E+000	2.68200E-001	6.37951E-005	10	...........	0
	432	8.66	2.91785E-001	-3.79573E-006	0.00000E+000	2.92200E-001	7.01336E-005	10	...........	0
	456	9.14	3.15815E-001	-2.59468E-006	0.00000E+000	3.16200E-001	6.41287E-005	10	...........	0
	480	9.62	3.39760E-001	-3.60056E-006	0.00000E+000	3.40200E-001	6.32947E-005	10	...........	0
	504	10.1	3.63735E-001	-3.12681E-006	0.00000E+000	3.64200E-001	6.55465E-005	10	...........	0
	528	10.58	3.87724E-001	-3.08344E-006	0.00000E+000	3.88200E-001	6.97166E-005	10	...........	0
	552	11.06	4.11729E-001	-1.29689E-006	0.00000E+000	4.12200E-001	6.10428E-005	10	...........	0
	576	11.54	4.35627E-001	-3.58555E-006	0.00000E+000	4.36200E-001	6.01254E-005	10	...........	0
	600	12.02	4.59629E-001	-3.65561E-006	0.00000E+000	4.60200E-001	5.55383E-005	10	...........	0
	624	12.5	4.83627E-001	-3.42541E-006	0.00000E+000	4.84200E-001	6.02088E-005	10	...........	0
	648	12.98	5.07632E-001	-2.88160E-006	0.00000E+000	5.08200E-001	6.09594E-005	10	...........	0
	672	13.46	5.31579E-001	-3.47879E-006	0.00000E+000	5.32200E-001	6.27108E-005	10	...........	0
	696	13.94	5.55532E-001	-3.25693E-006	0.00000E+000	5.56200E-001	6.31278E-005	10	...........	0
	720	14.42	5.79563E-001	-3.07677E-006	0.00000E+000	5.80200E-001	5.32031E-005	10	...........	0
	744	14.9	6.03548E-001	-4.16772E-006	0.00000E+000	6.04200E-001	5.76234E-005	10	...........	0
	768	15.38	6.27486E-001	-3.56553E-006	0.00000E+000	6.28200E-001	6.44623E-005	10	...........	0
	792	15.86	6.51456E-001	-3.38704E-006	0.00000E+000	6.52200E-001	5.71229E-005	10	...........	0
	816	16.34	6.75471E-001	-3.41707E-006	0.00000E+000	6.76200E-001	6.40453E-005	10	...........	0
	840	16.82	6.99469E-001	-3.80240E-006	0.00000E+000	7.00200E-001	5.90412E-005	10	...........	0
	864	17.3	6.75485E-001	-3.20855E-006	0.00000E+000	6.76200E-001	6.04590E-005	10	...........	0
	888	17.78	6.51464E-001	-4.06263E-006	0.00000E+000	6.52200E-001	6.30444E-005	10	...........	0
	912	18.26	6.27541E-001	-2.24772E-006	0.00000E+000	6.28200E-001	5.60387E-005	10	...........	0
	936	18.74	6.03568E-001	-3.66395E-006	0.00000E+000	6.04200E-001	5.54549E-005	10	...........	0
	960	19.22	5.79579E-001	-3.71900E-006	0.00000E+000	5.80200E-001	5.31197E-005	10	...........	0
	984	19.7	5.55556E-001	-3.57554E-006	0.00000E+000	5.56200E-001	5.83740E-005	10	...........	0
	1008	20.18	5.31654E-001	-2.40285E-006	0.00000E+000	5.32200E-001	6.18768E-005	10	...........	0
	1032	20.66	5.07622E-001	-3.67062E-006	0.00000E+000	5.08200E-001	6.04590E-005	10	...........	0
	1056	21.14	4.83639E-001	-3.48046E-006	0.00000E+000	4.84200E-001	6.33781E-005	10	...........	0
	1080	21.62	4.59662E-001	-3.61224E-006	0.00000E+000	4.60200E-001	5.89578E-005	10	...........	0
	1104	22.1	4.35688E-001	-3.28362E-006	0.00000E+000	4.36200E-001	6.70477E-005	10	...........	0
	1128	22.58	4.11688E-001	-4.38291E-006	0.00000E+000	4.12200E-001	6.37951E-005	10	...........	0
	1152	23.06	3.87738E-001	-4.15104E-006	0.00000E+000	3.88200E-001	6.37117E-005	10	...........	0
	1176	23.54	3.63776E-001	-4.17106E-006	0.00000E+000	3.64200E-001	6.43789E-005	10	...........	0
	1200	24.02	3.39778E-001	-4.41961E-006	0.00000E+000	3.40200E-001	6.52963E-005	10	...........	0
	1224	24.5	3.15787E-001	-4.34788E-006	0.00000E+000	3.16200E-001	6.10428E-005	10	...........	0
	1248	24.98	2.91810E-001	-3.98256E-006	0.00000E+000	2.92200E-001	6.22938E-005	10	...........	0
	1272	25.46	2.67839E-001	-3.46044E-006	0.00000E+000	2.68200E-001	5.53715E-005	10	...........	0
	1296	25.94	2.43842E-001	-3.95253E-006	0.00000E+000	2.44200E-001	6.38785E-005	10	...........	0
	1320	26.42	2.19933E-001	-4.47799E-006	0.00000E+000	2.20200E-001	6.51295E-005	10	...........	0
	1344	26.9	1.95958E-001	-4.32119E-006	0.00000E+000	1.96200E-001	5.69561E-005	10	...........	0
	1368	27.38	1.72004E-001	-2.16264E-006	0.00000E+000	1.72200E-001	6.36283E-005	10	...........	0
	1392	27.86	1.47976E-001	-3.85411E-006	0.00000E+000	1.48200E-001	6.02088E-005	10	...........	0
	1416	28.34	1.23995E-001	-2.88327E-006	0.00000E+000	1.24200E-001	5.21188E-005	10	...........	0
	1440	28.82	1.00008E-001	-4.04094E-006	0.00000E+000	1.00200E-001	4.69479E-005	10	...........	0
	1464	29.3	7.60809E-002	-2.72480E-006	0.00000E+000	7.62000E-002	5.10346E-005	10	...........	0
	1488	29.78	5.20274E-002	-4.37790E-006	0.00000E+000	5.22000E-002	6.07926E-005	10	...........	0
	1512	30.26	2.80379E-002	-4.02259E-006	0.00000E+000	2.82000E-002	6.69643E-005	10	...........	0
	1536	30.74	4.05730E-003	-4.29116E-006	0.00000E+000	4.20000E-003	5.77901E-005	10	...........	0
	1560	31.22	-1.98152E-002	-2.89161E-006	0.00000E+000	-1.98000E-002	5.43707E-005	10	...........	0
	1584	31.7	-4.38657E-002	-4.31285E-006	0.00000E+000	-4.38000E-002	6.57967E-005	10	...........	0
	1608	32.18	-6.78490E-002	-4.37290E-006	0.00000E+000	-6.78000E-002	5.82906E-005	10	...........	0
	1632	32.66	-9.18431E-002	-4.36789E-006	0.00000E+000	-9.18000E-002	5.80404E-005	10	...........	0
	1656	33.14	-1.15819E-001	-4.03594E-006	0.00000E+000	-1.15800E-001	5.23690E-005	10	...........	0
	1680	33.62	-1.39828E-001	-4.15271E-006	0.00000E+000	-1.39800E-001	6.54631E-005	10	...........	0
	1704	34.1	-1.63773E-001	-3.48212E-006	0.00000E+000	-1.63800E-001	5.02840E-005	10	...........	0
	1728	34.58	-1.87793E-001	-4.83830E-006	0.00000E+000	-1.87800E-001	6.06258E-005	10	...........	0
	1752	35.06	-2.11783E-001	-4.77492E-006	0.00000E+000	-2.11800E-001	6.20436E-005	10	...........	0
	1776	35.54	-2.35743E-001	-4.94840E-006	0.00000E+000	-2.35800E-001	5.94582E-005	10	...........	0
	1800	36.02	-2.59684E-001	-4.53971E-006	0.00000E+000	-2.59800E-001	5.91246E-005	10	...........	0
	1824	36.5	-2.83677E-001	-4.64981E-006	0.00000E+000	-2.83800E-001	6.32113E-005	10	...........	0
	1848	36.98	-3.07635E-001	-4.44630E-006	0.00000E+000	-3.07800E-001	6.27942E-005	10	...........	0
	1872	37.46	-3.31652E-001	-4.42795E-006	0.00000E+000	-3.31800E-001	6.00420E-005	10	...........	0
	1896	37.94	-3.55538E-001	-3.06009E-006	0.00000E+000	-3.55800E-001	6.64639E-005	10	...........	0
	1920	38.42	-3.79569E-001	-4.77325E-006	0.00000E+000	-3.79800E-001	6.15432E-005	10	...........	0
	1944	38.9	-4.03563E-001	-5.11021E-006	0.00000E+000	-4.03800E-001	6.37117E-005	10	...........	0
	1968	39.38	-4.27504E-001	-4.64480E-006	0.00000E+000	-4.27800E-001	6.28776E-005	10	...........	0
	1992	39.86	-4.51496E-001	-5.30538E-006	0.00000E+000	-4.51800E-001	5.88744E-005	10	...........	0
	2016	40.34	-4.75499E-001	-5.04849E-006	0.00000E+000	-4.75800E-001	6.75481E-005	10	...........	0
	2040	40.82	-4.99470E-001	-5.04849E-006	0.00000E+000	-4.99800E-001	6.20436E-005	10	...........	0
	2064	41.3	-5.23415E-001	-3.89081E-006	0.00000E+000	-5.23800E-001	5.79570E-005	10	...........	0
	2088	41.78	-5.47392E-001	-5.20529E-006	0.00000E+000	-5.47800E-001	6.57967E-005	10	...........	0
	2112	42.26	-5.71359E-001	-5.22864E-006	0.00000E+000	-5.71800E-001	6.10428E-005	10	...........	0
	2136	42.74	-5.95318E-001	-5.00845E-006	0.00000E+000	-5.95800E-001	5.80404E-005	10	...........	0
	2160	43.22	-5.79620E-001	-5.09686E-006	0.00000E+000	-5.80000E-001	5.84574E-005	10	...........	1
	2184	43.7	-5.55562E-001	-3.78906E-006	0.00000E+000	-5.56000E-001	5.78736E-005	10	...........	1
	2208	44.18	-5.31673E-001	-5.22197E-006	0.00000E+000	-5.32000E-001	6.28776E-005	10	...........	1
	2232	44.66	-5.07705E-001	-4.99844E-006	0.00000E+000	-5.08000E-001	5.98752E-005	10	...........	1
	2256	45.14	-4.83735E-001	-5.19528E-006	0.00000E+000	-4.84000E-001	6.24606E-005	10	...........	1
	2280	45.62	-4.59743E-001	-4.23945E-006	0.00000E+000	-4.60000E-001	6.67975E-005	10	...........	1
	2304	46.1	-4.35760E-001	-4.29283E-006	0.00000E+000	-4.36000E-001	5.95416E-005	10	...........	1
	2328	46.58	-4.11788E-001	-4.83330E-006	0.00000E+000	-4.12000E-001	5.58719E-005	10	...........	1
	2352	47.06	-3.87801E-001	-4.77325E-006	0.00000E+000	-3.88000E-001	5.62889E-005	10	...........	1
	2376	47.54	-3.63840E-001	-4.99010E-006	0.00000E+000	-3.64000E-001	5.62055E-005	10	...........	1
	2400	48.02	-3.39819E-001	-4.88168E-006	0.00000E+000	-3.40000E-001	5.70395E-005	10	...........	1
	2424	48.5	-3.15825E-001	-4.50802E-006	0.00000E+000	-3.16000E-001	6.81320E-005	10	...........	1
	2435	48.72	-3.04817E-001	-4.56640E-006	0.00000E+000	-3.05000E-001	5.79570E-005	10	...........	1