File: 20191129/matning1/CVTESTKRISTALL5BOX5_2.DTA
EXPLAIN
TAG	CV
TITLE	LABEL	CV	Test &Identifier
DATE	LABEL	11/29/2019	Date
TIME	LABEL	15:00:02	Time
NOTES	NOTES	1	&Notes...

PSTAT	PSTAT	REF600-16093	Potentiostat
VINIT	POTEN	0.00000E+000	T	Initial &E (V)
VLIMIT1	POTEN	1.50000E+000	F	Scan Limit &1 (V)
VLIMIT2	POTEN	2.00000E-001	F	Scan Limit &2 (V)
VFINAL	POTEN	0.00000E+000	T	Final &E (V)
SCANRATE	QUANT	4.99999E+001	&Scan Rate (mV/s)
STEPSIZE	QUANT	1.00000E+000	St&ep Size (mV)
CYCLES	IQUANT	5	C&ycles (#)
IMODE	SELECTOR	1	I/E Range &Mode
IRANGE	QUANT	1.50000E+001	&Max Current (mA)
AREA	QUANT	1.00000E+000	Electrode &Area (cm^2)
ELECTRODETYPE	SELECTOR	0	Electrode Type
STRIPPING	TOGGLE	F	Used for Stripping
POLARITY	TOGGLE	F	Signal Polarity
CONDIT	TWOPARAM	F	1.50000E+001	0.00000E+000	Conditionin&g	Time(s)	E(V)
DELAY	TWOPARAM	T	5.00000E+000	0.00000E+000	Init. De&lay	Time(s)	Stab.(mV/s)
EQDELAY	QUANT	3.00000E+000	Equil. &Time (s)
IRCOMP	SELECTOR	0	IRCom&p
PFCOR	QUANT	0.00000E+000	PF Corr. (ohm)
SAMPLINGMODE	SELECTOR	2	Sampling &Mode
OCVCURVE	TABLE	20
	Pt	T	Vf	Vm	Ach	Over
	#	s	V vs. Ref.	V	V	bits
	0	0.25	-2.80971E-001	-2.80971E-001	9.81416E-005	...........
	1	0.5	-2.81032E-001	-2.84148E-001	1.06892E-004	...........
	2	0.75	-2.81282E-001	-2.80713E-001	1.15225E-004	...........
	3	1	-2.81663E-001	-2.81855E-001	1.19766E-004	...........
	4	1.25	-2.81873E-001	-2.80379E-001	9.94749E-005	...........
	5	1.5	-2.81742E-001	-2.80763E-001	1.00392E-004	...........
	6	1.75	-2.81398E-001	-2.81132E-001	1.14183E-004	...........
	7	2	-2.81082E-001	-2.80985E-001	1.07100E-004	...........
	8	2.25	-2.80920E-001	-2.80242E-001	9.74750E-005	...........
	9	2.5	-2.80849E-001	-2.80908E-001	1.19058E-004	...........
	10	2.75	-2.80773E-001	-2.80335E-001	1.16725E-004	...........
	11	3	-2.80701E-001	-2.81424E-001	1.07891E-004	...........
	12	3.25	-2.80687E-001	-2.80259E-001	1.01225E-004	...........
	13	3.5	-2.80712E-001	-2.80320E-001	1.22266E-004	...........
	14	3.75	-2.80681E-001	-2.80268E-001	1.10725E-004	...........
	15	4	-2.80554E-001	-2.79806E-001	1.01683E-004	...........
	16	4.25	-2.80378E-001	-2.80321E-001	1.18850E-004	...........
	17	4.5	-2.80217E-001	-2.79672E-001	1.23516E-004	...........
	18	4.75	-2.80112E-001	-2.80824E-001	1.03433E-004	...........
	19	5	-2.80090E-001	-2.79828E-001	9.32667E-005	...........
EOC	QUANT	-0.2800901	Open Circuit (V)
PSTATMODEL	IQUANT	4	Pstat Model
PSTATSECTION	LABEL	REF600-16093	Pstat Section
PSTATSERIALNO	LABEL	16093	Pstat Serial Number
CTRLMODE	IQUANT	1	Control Mode
IESTAB	IQUANT	2	I/E Stability
CASPEED	IQUANT	2	Control Amp Speed
CONVENTION	IQUANT	1	Current Convention
ICHRANGE	IQUANT	2	Ich Range
ICHRANGEMODE	TOGGLE	F	Ich Auto Range
ICHOFFSETENABLE	TOGGLE	F	Ich Offset Enable
ICHOFFSET	QUANT	0	Ich Offset (V)
ICHFILTER	IQUANT	2	Ich Filter
VCHRANGE	IQUANT	2	Vch Range
VCHRANGEMODE	TOGGLE	F	Vch Auto Range
VCHOFFSETENABLE	TOGGLE	F	Vch Offset Enable
VCHOFFSET	QUANT	0	Vch Offset (V)
VCHFILTER	IQUANT	2	Vch Filter
ACHRANGE	IQUANT	2	Ach Range
ACHOFFSETENABLE	TOGGLE	F	Ach Offset Enable
ACHOFFSET	QUANT	0	Ach Offset (V)
ACHFILTER	IQUANT	1	Ach Filter
IERANGELOWERLIMIT	IQUANT	1	I/E Range Lower Limit
IERANGEMODE	TOGGLE	F	I/E AutoRange
IERANGE	IQUANT	10	I/E Range
POSFEEDENABLE	TOGGLE	F	Positive Feedback IR Comp
POSFEEDRESISTANCE	QUANT	0	Positive Feedback Resistance (ohm)
ACHSELECT	IQUANT	0	Ach Select
CABLEID	IQUANT	14	Cable ID
DCCALDATE	LABEL	11/5/2019	DC Calibration Date
ACCALDATE	LABEL		AC Calibration Date
THERMOSELECT	IQUANT	1	Thermo Select
FRAMEWORKVERSION	QUANT	6.12	Framework Version
INSTRUMENTVERSION	LABEL	3.11	Instrument Version
EXPERIMENTABORTED	TOGGLE	T	Experiment Aborted
CURVE	TABLE	1286
	Pt	T	Vf	Im	Vu	Sig	Ach	IERange	Over	Cycle
	#	s	V vs. Ref.	A	V	V	V	#	bits	#
	0	0.02	-2.80065E-001	-5.31221E-007	0.00000E+000	-2.80100E-001	1.52951E-004	10	...........	0
	13	0.28	-2.66979E-001	-2.51962E-006	0.00000E+000	-2.67100E-001	1.74969E-004	10	...........	0
	26	0.54	-2.54030E-001	-1.10505E-006	0.00000E+000	-2.54100E-001	1.63627E-004	10	...........	0
	39	0.8	-2.41094E-001	5.93091E-007	0.00000E+000	-2.41100E-001	1.67547E-004	10	...........	0
	52	1.06	-2.27871E-001	3.39720E-006	0.00000E+000	-2.28100E-001	1.47697E-004	10	...........	0
	65	1.32	-2.15139E-001	-8.76522E-007	0.00000E+000	-2.15100E-001	1.70049E-004	10	...........	0
	78	1.58	-2.01936E-001	3.26375E-006	0.00000E+000	-2.02100E-001	1.41942E-004	10	...........	0
	91	1.84	-1.89331E-001	-2.05755E-006	0.00000E+000	-1.89100E-001	1.77138E-004	10	...........	0
	104	2.1	-1.75869E-001	3.38886E-006	0.00000E+000	-1.76100E-001	1.48114E-004	10	...........	0
	117	2.36	-1.63214E-001	-1.89908E-006	0.00000E+000	-1.63100E-001	1.70632E-004	10	...........	0
	130	2.62	-1.50093E-001	-1.87406E-006	0.00000E+000	-1.50100E-001	1.73385E-004	10	...........	0
	143	2.88	-1.37172E-001	-5.39562E-007	0.00000E+000	-1.37100E-001	1.61375E-004	10	...........	0
	156	3.14	-1.24208E-001	-1.76563E-006	0.00000E+000	-1.24100E-001	1.75887E-004	10	...........	0
	169	3.4	-1.11207E-001	-1.05501E-006	0.00000E+000	-1.11100E-001	1.61792E-004	10	...........	0
	182	3.66	-9.82450E-002	-1.84570E-006	0.00000E+000	-9.80999E-002	1.74886E-004	10	...........	0
	195	3.92	-8.52944E-002	2.51127E-007	0.00000E+000	-8.51000E-002	1.65378E-004	10	...........	0
	208	4.18	-7.22659E-002	-1.33692E-006	0.00000E+000	-7.21000E-002	1.76054E-004	10	...........	0
	221	4.44	-5.92550E-002	-6.16295E-007	0.00000E+000	-5.91000E-002	1.60040E-004	10	...........	0
	234	4.7	-4.62555E-002	7.83257E-007	0.00000E+000	-4.61000E-002	1.64961E-004	10	...........	0
	247	4.96	-3.33454E-002	-1.40198E-006	0.00000E+000	-3.30999E-002	1.73552E-004	10	...........	0
	260	5.22	-2.02869E-002	-4.24462E-007	0.00000E+000	-2.01000E-002	1.74219E-004	10	...........	0
	273	5.48	-7.28040E-003	-1.37696E-006	0.00000E+000	-7.09999E-003	1.70966E-004	10	...........	0
	286	5.74	5.87778E-003	3.72081E-006	0.00000E+000	5.90003E-003	1.42526E-004	10	...........	0
	299	6	1.85743E-002	-6.91522E-008	0.00000E+000	1.89000E-002	1.72884E-004	10	...........	0
	312	6.26	3.15642E-002	-1.67722E-006	0.00000E+000	3.19000E-002	1.72968E-004	10	...........	0
	325	6.52	4.46165E-002	-1.34209E-007	0.00000E+000	4.49000E-002	1.64377E-004	10	...........	0
	338	6.78	5.76176E-002	7.39885E-007	0.00000E+000	5.79000E-002	1.67463E-004	10	...........	0
	351	7.04	7.07514E-002	-1.47037E-006	0.00000E+000	7.09000E-002	1.70966E-004	10	...........	0
	364	7.3	8.36015E-002	7.76584E-007	0.00000E+000	8.39000E-002	1.65712E-004	10	...........	0
	377	7.56	9.65955E-002	-1.37529E-006	0.00000E+000	9.69000E-002	1.70215E-004	10	...........	0
	390	7.82	1.09557E-001	-1.18846E-006	0.00000E+000	1.09900E-001	1.67463E-004	10	...........	0
	403	8.08	1.22538E-001	-1.37195E-006	0.00000E+000	1.22900E-001	1.77972E-004	10	...........	0
	416	8.34	1.35761E-001	3.67077E-006	0.00000E+000	1.35900E-001	1.44611E-004	10	...........	0
	429	8.6	1.48514E-001	3.42712E-008	0.00000E+000	1.48900E-001	1.68547E-004	10	...........	0
	442	8.86	1.61525E-001	-9.76609E-007	0.00000E+000	1.61900E-001	1.75303E-004	10	...........	0
	455	9.12	1.74731E-001	-1.65053E-006	0.00000E+000	1.74900E-001	1.71466E-004	10	...........	0
	468	9.38	1.87554E-001	-1.39364E-006	0.00000E+000	1.87900E-001	1.66796E-004	10	...........	0
	481	9.64	2.00522E-001	-8.84862E-007	0.00000E+000	2.00900E-001	1.59790E-004	10	...........	0
	494	9.9	2.13480E-001	-1.61717E-006	0.00000E+000	2.13900E-001	1.74469E-004	10	...........	0
	507	10.16	2.26703E-001	3.86928E-006	0.00000E+000	2.26900E-001	1.45695E-004	10	...........	0
	520	10.42	2.39397E-001	-5.76365E-009	0.00000E+000	2.39900E-001	1.73635E-004	10	...........	0
	533	10.68	2.52364E-001	-1.89257E-007	0.00000E+000	2.52900E-001	1.71133E-004	10	...........	0
	546	10.94	2.65427E-001	5.61397E-007	0.00000E+000	2.65900E-001	1.64711E-004	10	...........	0
	559	11.2	2.78540E-001	-3.84427E-007	0.00000E+000	2.78900E-001	1.76137E-004	10	...........	0
	572	11.46	2.91717E-001	4.34969E-006	0.00000E+000	2.91900E-001	1.47697E-004	10	...........	0
	585	11.72	3.04409E-001	-1.97597E-007	0.00000E+000	3.04900E-001	1.75470E-004	10	...........	0
	598	11.98	3.17372E-001	-7.93116E-007	0.00000E+000	3.17900E-001	1.77054E-004	10	...........	0
	611	12.24	3.30403E-001	1.17860E-006	0.00000E+000	3.30900E-001	1.54953E-004	10	...........	0
	624	12.5	3.43351E-001	-7.91610E-008	0.00000E+000	3.43900E-001	1.71049E-004	10	...........	0
	637	12.76	3.56309E-001	9.38392E-007	0.00000E+000	3.56900E-001	1.65545E-004	10	...........	0
	650	13.02	3.69319E-001	-3.56069E-007	0.00000E+000	3.69900E-001	1.80891E-004	10	...........	0
	663	13.28	3.82632E-001	4.83512E-006	0.00000E+000	3.82900E-001	1.39857E-004	10	...........	0
	676	13.54	3.95323E-001	3.26192E-007	0.00000E+000	3.95900E-001	1.66462E-004	10	...........	0
	689	13.8	4.08586E-001	3.91765E-006	0.00000E+000	4.08900E-001	1.37022E-004	10	...........	0
	702	14.06	4.21286E-001	1.57561E-006	0.00000E+000	4.21900E-001	1.73135E-004	10	...........	0
	715	14.32	4.34318E-001	-2.94348E-007	0.00000E+000	4.34900E-001	1.68881E-004	10	...........	0
	728	14.58	4.47280E-001	6.91510E-007	0.00000E+000	4.47900E-001	1.63043E-004	10	...........	0
	741	14.84	4.60191E-001	-4.97859E-007	0.00000E+000	4.60900E-001	1.78305E-004	10	...........	0
	754	15.1	4.73540E-001	4.59991E-006	0.00000E+000	4.73900E-001	1.43694E-004	10	...........	0
	767	15.36	4.86244E-001	-7.43188E-009	0.00000E+000	4.86900E-001	1.76971E-004	10	...........	0
	780	15.62	4.99213E-001	3.42712E-008	0.00000E+000	4.99900E-001	1.70799E-004	10	...........	0
	793	15.88	5.12356E-001	1.44050E-006	0.00000E+000	5.12900E-001	1.66796E-004	10	...........	0
	806	16.14	5.25192E-001	2.20283E-006	0.00000E+000	5.25900E-001	1.67547E-004	10	...........	0
	819	16.4	5.38432E-001	5.33388E-006	0.00000E+000	5.38900E-001	1.41108E-004	10	...........	0
	832	16.66	5.51115E-001	7.26541E-007	0.00000E+000	5.51900E-001	1.70299E-004	10	...........	0
	845	16.92	5.64434E-001	5.37559E-006	0.00000E+000	5.64900E-001	1.43277E-004	10	...........	0
	858	17.18	5.77041E-001	7.63239E-007	0.00000E+000	5.77900E-001	1.71633E-004	10	...........	0
	871	17.44	5.90497E-001	5.24547E-006	0.00000E+000	5.90900E-001	1.41859E-004	10	...........	0
	884	17.7	6.03255E-001	6.58148E-007	0.00000E+000	6.03900E-001	1.69298E-004	10	...........	0
	897	17.96	6.16273E-001	-2.35964E-007	0.00000E+000	6.16900E-001	1.81058E-004	10	...........	0
	910	18.22	6.29163E-001	1.22364E-006	0.00000E+000	6.29900E-001	1.66296E-004	10	...........	0
	923	18.48	6.42100E-001	2.33628E-006	0.00000E+000	6.42900E-001	1.76888E-004	10	...........	0
	936	18.74	6.55055E-001	1.01179E-006	0.00000E+000	6.55900E-001	1.74219E-004	10	...........	0
	949	19	6.68085E-001	1.46218E-006	0.00000E+000	6.68900E-001	1.75803E-004	10	...........	0
	962	19.26	6.80975E-001	1.60230E-006	0.00000E+000	6.81900E-001	1.81808E-004	10	...........	0
	975	19.52	6.94064E-001	1.96095E-006	0.00000E+000	6.94900E-001	1.64544E-004	10	...........	0
	988	19.78	7.07006E-001	2.95682E-006	0.00000E+000	7.07900E-001	1.71466E-004	10	...........	0
	1001	20.04	7.20148E-001	3.37385E-006	0.00000E+000	7.20900E-001	1.59540E-004	10	...........	0
	1014	20.3	7.33148E-001	1.52390E-006	0.00000E+000	7.33900E-001	1.72134E-004	10	...........	0
	1027	20.56	7.46005E-001	1.26534E-006	0.00000E+000	7.46900E-001	1.75553E-004	10	...........	0
	1040	20.82	7.58983E-001	1.09186E-006	0.00000E+000	7.59900E-001	1.75386E-004	10	...........	0
	1053	21.08	7.71987E-001	1.08018E-006	0.00000E+000	7.72900E-001	1.74386E-004	10	...........	0
	1066	21.34	7.84953E-001	1.34708E-006	0.00000E+000	7.85900E-001	1.80224E-004	10	...........	0
	1079	21.6	7.97908E-001	7.94933E-007	0.00000E+000	7.98900E-001	1.78389E-004	10	...........	0
	1092	21.86	8.10939E-001	1.47886E-006	0.00000E+000	8.11900E-001	1.82309E-004	10	...........	0
	1105	22.12	8.23910E-001	1.66903E-006	0.00000E+000	8.24900E-001	1.75053E-004	10	...........	0
	1118	22.38	8.37142E-001	1.63233E-006	0.00000E+000	8.37900E-001	1.75136E-004	10	...........	0
	1131	22.64	8.49980E-001	1.51556E-006	0.00000E+000	8.50900E-001	1.77722E-004	10	...........	0
	1144	22.9	8.62969E-001	2.34628E-006	0.00000E+000	8.63900E-001	1.65545E-004	10	...........	0
	1157	23.16	8.75959E-001	1.67236E-006	0.00000E+000	8.76900E-001	1.75803E-004	10	...........	0
	1170	23.42	8.88955E-001	2.57982E-006	0.00000E+000	8.89900E-001	1.70382E-004	10	...........	0
	1183	23.68	9.01892E-001	1.70072E-006	0.00000E+000	9.02900E-001	1.76220E-004	10	...........	0
	1196	23.94	9.15259E-001	6.24468E-006	0.00000E+000	9.15900E-001	1.43193E-004	10	...........	0
	1209	24.2	9.27869E-001	2.00766E-006	0.00000E+000	9.28900E-001	1.74135E-004	10	...........	0
	1222	24.46	9.41072E-001	1.64567E-006	0.00000E+000	9.41900E-001	1.75470E-004	10	...........	0
	1235	24.72	9.53961E-001	2.62820E-006	0.00000E+000	9.54900E-001	1.64878E-004	10	...........	0
	1248	24.98	9.66887E-001	1.43549E-006	0.00000E+000	9.67900E-001	1.76971E-004	10	...........	0
	1261	25.24	9.80096E-001	6.11123E-006	0.00000E+000	9.80900E-001	1.50700E-004	10	...........	0
	1274	25.5	9.92851E-001	1.57061E-006	0.00000E+000	9.93900E-001	1.80641E-004	10	...........	0
	1285	25.72	1.00382E+000	1.88422E-006	0.00000E+000	1.00490E+000	1.80390E-004	10	...........	0