File: 20191129/matning1/CVTESTKRISTALL5BOX5.DTA
EXPLAIN
TAG	CV
TITLE	LABEL	CV	Test &Identifier
DATE	LABEL	11/29/2019	Date
TIME	LABEL	13:24:37	Time
NOTES	NOTES	1	&Notes...

PSTAT	PSTAT	REF600-16093	Potentiostat
VINIT	POTEN	0.00000E+000	T	Initial &E (V)
VLIMIT1	POTEN	8.00000E-001	F	Scan Limit &1 (V)
VLIMIT2	POTEN	-5.00000E-001	F	Scan Limit &2 (V)
VFINAL	POTEN	0.00000E+000	T	Final &E (V)
SCANRATE	QUANT	4.99999E+001	&Scan Rate (mV/s)
STEPSIZE	QUANT	1.00000E+000	St&ep Size (mV)
CYCLES	IQUANT	5	C&ycles (#)
IMODE	SELECTOR	1	I/E Range &Mode
IRANGE	QUANT	1.50000E+001	&Max Current (mA)
AREA	QUANT	1.00000E+000	Electrode &Area (cm^2)
ELECTRODETYPE	SELECTOR	0	Electrode Type
STRIPPING	TOGGLE	F	Used for Stripping
POLARITY	TOGGLE	F	Signal Polarity
CONDIT	TWOPARAM	F	1.50000E+001	0.00000E+000	Conditionin&g	Time(s)	E(V)
DELAY	TWOPARAM	T	5.00000E+000	0.00000E+000	Init. De&lay	Time(s)	Stab.(mV/s)
EQDELAY	QUANT	3.00000E+000	Equil. &Time (s)
IRCOMP	SELECTOR	0	IRCom&p
PFCOR	QUANT	0.00000E+000	PF Corr. (ohm)
SAMPLINGMODE	SELECTOR	2	Sampling &Mode
OCVCURVE	TABLE	20
	Pt	T	Vf	Vm	Ach	Over
	#	s	V vs. Ref.	V	V	bits
	0	0.25	1.85621E-001	1.85621E-001	6.72671E-005	...........
	1	0.5	1.85622E-001	1.85703E-001	6.01005E-005	...........
	2	0.75	1.85630E-001	1.85667E-001	6.08089E-005	...........
	3	1	1.85645E-001	1.85717E-001	6.42255E-005	...........
	4	1.25	1.85664E-001	1.85674E-001	6.37672E-005	...........
	5	1.5	1.85681E-001	1.85740E-001	6.36422E-005	...........
	6	1.75	1.85696E-001	1.85859E-001	6.09339E-005	...........
	7	2	1.85713E-001	1.85450E-001	6.68088E-005	...........
	8	2.25	1.85722E-001	1.85960E-001	6.51005E-005	...........
	9	2.5	1.85728E-001	1.86004E-001	6.54755E-005	...........
	10	2.75	1.85751E-001	1.85342E-001	6.31838E-005	...........
	11	3	1.85769E-001	1.85708E-001	5.85172E-005	...........
	12	3.25	1.85743E-001	1.85809E-001	6.31005E-005	...........
	13	3.5	1.85710E-001	1.86079E-001	5.76006E-005	...........
	14	3.75	1.85726E-001	1.85506E-001	5.96006E-005	...........
	15	4	1.85755E-001	1.84993E-001	6.03922E-005	...........
	16	4.25	1.85701E-001	1.85578E-001	6.37255E-005	...........
	17	4.5	1.85572E-001	1.85664E-001	6.18505E-005	...........
	18	4.75	1.85481E-001	1.85739E-001	5.86422E-005	...........
	19	5	1.85497E-001	1.85607E-001	5.55173E-005	...........
EOC	QUANT	0.1854966	Open Circuit (V)
PSTATMODEL	IQUANT	4	Pstat Model
PSTATSECTION	LABEL	REF600-16093	Pstat Section
PSTATSERIALNO	LABEL	16093	Pstat Serial Number
CTRLMODE	IQUANT	1	Control Mode
IESTAB	IQUANT	2	I/E Stability
CASPEED	IQUANT	2	Control Amp Speed
CONVENTION	IQUANT	1	Current Convention
ICHRANGE	IQUANT	2	Ich Range
ICHRANGEMODE	TOGGLE	F	Ich Auto Range
ICHOFFSETENABLE	TOGGLE	F	Ich Offset Enable
ICHOFFSET	QUANT	0	Ich Offset (V)
ICHFILTER	IQUANT	2	Ich Filter
VCHRANGE	IQUANT	2	Vch Range
VCHRANGEMODE	TOGGLE	F	Vch Auto Range
VCHOFFSETENABLE	TOGGLE	F	Vch Offset Enable
VCHOFFSET	QUANT	0	Vch Offset (V)
VCHFILTER	IQUANT	2	Vch Filter
ACHRANGE	IQUANT	2	Ach Range
ACHOFFSETENABLE	TOGGLE	F	Ach Offset Enable
ACHOFFSET	QUANT	0	Ach Offset (V)
ACHFILTER	IQUANT	1	Ach Filter
IERANGELOWERLIMIT	IQUANT	1	I/E Range Lower Limit
IERANGEMODE	TOGGLE	F	I/E AutoRange
IERANGE	IQUANT	10	I/E Range
POSFEEDENABLE	TOGGLE	F	Positive Feedback IR Comp
POSFEEDRESISTANCE	QUANT	0	Positive Feedback Resistance (ohm)
ACHSELECT	IQUANT	0	Ach Select
CABLEID	IQUANT	14	Cable ID
DCCALDATE	LABEL	11/5/2019	DC Calibration Date
ACCALDATE	LABEL		AC Calibration Date
THERMOSELECT	IQUANT	1	Thermo Select
FRAMEWORKVERSION	QUANT	6.12	Framework Version
INSTRUMENTVERSION	LABEL	3.11	Instrument Version
CURVE1	TABLE
	Pt	T	Vf	Im	Vu	Sig	Ach	IERange	Over
	#	s	V vs. Ref.	A	V	V	V	#	bits
	0	0.02	1.84999E-001	-3.06343E-006	0.00000E+000	1.85500E-001	6.88826E-005	10	...........
	18	0.38	2.02977E-001	-1.89074E-006	0.00000E+000	2.03500E-001	6.52129E-005	10	...........
	36	0.74	2.21106E-001	-2.02919E-006	0.00000E+000	2.21500E-001	6.44623E-005	10	...........
	54	1.1	2.38925E-001	-1.14676E-006	0.00000E+000	2.39500E-001	6.73813E-005	10	...........
	72	1.46	2.56909E-001	-1.53876E-006	0.00000E+000	2.57500E-001	6.25440E-005	10	...........
	90	1.82	2.74914E-001	-1.29022E-006	0.00000E+000	2.75500E-001	6.63805E-005	10	...........
	108	2.18	2.92896E-001	-6.73011E-007	0.00000E+000	2.93500E-001	6.10428E-005	10	...........
	126	2.54	3.10865E-001	2.12760E-007	0.00000E+000	3.11500E-001	7.02170E-005	10	...........
	144	2.9	3.28858E-001	7.74916E-007	0.00000E+000	3.29500E-001	6.22938E-005	10	...........
	162	3.26	3.46757E-001	1.32706E-006	0.00000E+000	3.47500E-001	5.97084E-005	10	...........
	180	3.62	3.64861E-001	3.34716E-006	0.00000E+000	3.65500E-001	5.83740E-005	10	...........
	198	3.98	3.82828E-001	4.40141E-006	0.00000E+000	3.83500E-001	6.14598E-005	10	...........
	216	4.34	4.00798E-001	5.52572E-006	0.00000E+000	4.01500E-001	5.97084E-005	10	...........
	234	4.7	4.18734E-001	8.09629E-006	0.00000E+000	4.19500E-001	6.79651E-005	10	...........
	252	5.06	4.36762E-001	1.07686E-005	0.00000E+000	4.37500E-001	5.83740E-005	10	...........
	270	5.42	4.54777E-001	1.38713E-005	0.00000E+000	4.55500E-001	6.32947E-005	10	...........
	288	5.78	4.72741E-001	1.69990E-005	0.00000E+000	4.73500E-001	6.41287E-005	10	...........
	306	6.14	4.90707E-001	2.04037E-005	0.00000E+000	4.91500E-001	6.42121E-005	10	...........
	324	6.5	5.08709E-001	2.37266E-005	0.00000E+000	5.09500E-001	5.86242E-005	10	...........
	342	6.86	5.26769E-001	2.70094E-005	0.00000E+000	5.27500E-001	6.80485E-005	10	...........
	360	7.22	5.44650E-001	3.02489E-005	0.00000E+000	5.45500E-001	6.33781E-005	10	...........
	378	7.58	5.62682E-001	3.34067E-005	0.00000E+000	5.63500E-001	6.71311E-005	10	...........
	396	7.94	5.80668E-001	3.66812E-005	0.00000E+000	5.81500E-001	6.66307E-005	10	...........
	414	8.3	5.98715E-001	3.89715E-005	0.00000E+000	5.99500E-001	7.06340E-005	10	...........
	432	8.66	6.16597E-001	4.21192E-005	0.00000E+000	6.17500E-001	7.00502E-005	10	...........
	450	9.02	6.34596E-001	4.49317E-005	0.00000E+000	6.35500E-001	7.05506E-005	10	...........
	468	9.38	6.52559E-001	4.77008E-005	0.00000E+000	6.53500E-001	7.13012E-005	10	...........
	486	9.74	6.70688E-001	5.06016E-005	0.00000E+000	6.71500E-001	6.87158E-005	10	...........
	504	10.1	6.88572E-001	5.34374E-005	0.00000E+000	6.89500E-001	7.06340E-005	10	...........
	522	10.46	7.06550E-001	5.70306E-005	0.00000E+000	7.07500E-001	6.85490E-005	10	...........
	540	10.82	7.24517E-001	5.90256E-005	0.00000E+000	7.25500E-001	7.08842E-005	10	...........
	558	11.18	7.42681E-001	6.21116E-005	0.00000E+000	7.43500E-001	6.92162E-005	10	...........
	576	11.54	7.60491E-001	6.48657E-005	0.00000E+000	7.61500E-001	6.98834E-005	10	...........
	594	11.9	7.78498E-001	6.81886E-005	0.00000E+000	7.79500E-001	6.17100E-005	10	...........
	612	12.26	7.96471E-001	7.14398E-005	0.00000E+000	7.97500E-001	6.92162E-005	10	...........
	630	12.62	7.82722E-001	4.69034E-005	0.00000E+000	7.83500E-001	6.12930E-005	10	...........
	648	12.98	7.64507E-001	3.15083E-005	0.00000E+000	7.65500E-001	6.32113E-005	10	...........
	666	13.34	7.46516E-001	2.22753E-005	0.00000E+000	7.47500E-001	6.33781E-005	10	...........
	684	13.7	7.28545E-001	1.54160E-005	0.00000E+000	7.29500E-001	7.34697E-005	10	...........
	702	14.06	7.10737E-001	1.12640E-005	0.00000E+000	7.11500E-001	6.51295E-005	10	...........
	720	14.42	6.92553E-001	7.63923E-006	0.00000E+000	6.93500E-001	7.38032E-005	10	...........
	738	14.78	6.74570E-001	5.22713E-006	0.00000E+000	6.75500E-001	7.09676E-005	10	...........
	756	15.14	6.56595E-001	3.52731E-006	0.00000E+000	6.57500E-001	7.10510E-005	10	...........
	774	15.5	6.38769E-001	4.11266E-007	0.00000E+000	6.39500E-001	7.08842E-005	10	...........
	792	15.86	6.20609E-001	7.66575E-007	0.00000E+000	6.21500E-001	7.83903E-005	10	...........
	810	16.22	6.02585E-001	-9.66600E-007	0.00000E+000	6.03500E-001	7.32194E-005	10	...........
	828	16.58	5.84690E-001	-1.47037E-006	0.00000E+000	5.85500E-001	6.92162E-005	10	...........
	846	16.94	5.66780E-001	-2.15263E-006	0.00000E+000	5.67500E-001	7.28024E-005	10	...........
	864	17.3	5.48627E-001	-3.11681E-006	0.00000E+000	5.49500E-001	6.93830E-005	10	...........
	882	17.66	5.30725E-001	-4.04428E-006	0.00000E+000	5.31500E-001	7.15514E-005	10	...........
	900	18.02	5.12712E-001	-4.33120E-006	0.00000E+000	5.13500E-001	6.87992E-005	10	...........
	918	18.38	4.94780E-001	-4.73655E-006	0.00000E+000	4.95500E-001	7.37198E-005	10	...........
	936	18.74	4.76821E-001	-5.58062E-006	0.00000E+000	4.77500E-001	6.44623E-005	10	...........
	954	19.1	4.58778E-001	-5.25367E-006	0.00000E+000	4.59500E-001	6.95498E-005	10	...........
	972	19.46	4.40784E-001	-6.08105E-006	0.00000E+000	4.41500E-001	6.64639E-005	10	...........
	990	19.82	4.22790E-001	-7.30712E-006	0.00000E+000	4.23500E-001	6.57967E-005	10	...........
	1008	20.18	4.04919E-001	-7.52731E-006	0.00000E+000	4.05500E-001	6.56299E-005	10	...........
	1026	20.54	3.86807E-001	-7.73750E-006	0.00000E+000	3.87500E-001	6.77983E-005	10	...........
	1044	20.9	3.68840E-001	-8.46313E-006	0.00000E+000	3.69500E-001	6.72145E-005	10	...........
	1062	21.26	3.50872E-001	-9.76259E-006	0.00000E+000	3.51500E-001	7.08842E-005	10	...........
	1080	21.62	3.32960E-001	-1.07384E-005	0.00000E+000	3.33500E-001	6.85490E-005	10	...........
	1098	21.98	3.14853E-001	-1.16009E-005	0.00000E+000	3.15500E-001	7.52211E-005	10	...........
	1116	22.34	2.96898E-001	-1.37294E-005	0.00000E+000	2.97500E-001	6.87992E-005	10	...........
	1134	22.7	2.78926E-001	-1.47019E-005	0.00000E+000	2.79500E-001	7.35530E-005	10	...........
	1152	23.06	2.60980E-001	-1.54659E-005	0.00000E+000	2.61500E-001	6.69643E-005	10	...........
	1170	23.42	2.42896E-001	-1.76895E-005	0.00000E+000	2.43500E-001	7.53879E-005	10	...........
	1188	23.78	2.24953E-001	-1.84935E-005	0.00000E+000	2.25500E-001	7.18016E-005	10	...........
	1206	24.14	2.06966E-001	-2.01717E-005	0.00000E+000	2.07500E-001	7.46373E-005	10	...........
	1224	24.5	1.89045E-001	-2.24753E-005	0.00000E+000	1.89500E-001	7.00502E-005	10	...........
	1242	24.86	1.71039E-001	-2.51343E-005	0.00000E+000	1.71500E-001	7.48875E-005	10	...........
	1260	25.22	1.53042E-001	-2.76915E-005	0.00000E+000	1.53500E-001	7.40535E-005	10	...........
	1278	25.58	1.35026E-001	-3.13064E-005	0.00000E+000	1.35500E-001	7.40535E-005	10	...........
	1296	25.94	1.17194E-001	-3.48311E-005	0.00000E+000	1.17500E-001	7.86405E-005	10	...........
	1314	26.3	9.90599E-002	-3.98855E-005	0.00000E+000	9.95000E-002	7.45539E-005	10	...........
	1332	26.66	8.10641E-002	-4.46179E-005	0.00000E+000	8.15000E-002	7.50543E-005	10	...........
	1350	27.02	6.30977E-002	-4.96089E-005	0.00000E+000	6.35000E-002	6.84655E-005	10	...........
	1368	27.38	4.51952E-002	-5.52806E-005	0.00000E+000	4.55000E-002	7.24688E-005	10	...........
	1386	27.74	2.71223E-002	-6.01281E-005	0.00000E+000	2.75000E-002	6.86324E-005	10	...........
	1404	28.1	9.06848E-003	-6.63919E-005	0.00000E+000	9.50001E-003	7.38866E-005	10	...........
	1422	28.46	-8.79172E-003	-7.15614E-005	0.00000E+000	-8.49999E-003	6.27108E-005	10	...........
	1440	28.82	-2.67530E-002	-7.70111E-005	0.00000E+000	-2.65000E-002	7.02170E-005	10	...........
	1458	29.18	-4.47877E-002	-8.09062E-005	0.00000E+000	-4.45000E-002	6.26274E-005	10	...........
	1476	29.54	-6.28567E-002	-8.46828E-005	0.00000E+000	-6.25000E-002	6.33781E-005	10	...........
	1494	29.9	-8.07184E-002	-8.57171E-005	0.00000E+000	-8.05000E-002	7.36364E-005	10	...........
	1512	30.26	-9.87423E-002	-8.68314E-005	0.00000E+000	-9.85000E-002	7.60551E-005	10	...........
	1530	30.62	-1.16765E-001	-8.55986E-005	0.00000E+000	-1.16500E-001	6.52963E-005	10	...........
	1548	30.98	-1.34717E-001	-8.31381E-005	0.00000E+000	-1.34500E-001	7.45539E-005	10	...........
	1566	31.34	-1.52701E-001	-8.01972E-005	0.00000E+000	-1.52500E-001	7.22186E-005	10	...........
	1584	31.7	-1.70678E-001	-7.69628E-005	0.00000E+000	-1.70500E-001	7.21352E-005	10	...........
	1602	32.06	-1.88473E-001	-7.44339E-005	0.00000E+000	-1.88500E-001	6.97166E-005	10	...........
	1620	32.42	-2.06640E-001	-7.14947E-005	0.00000E+000	-2.06500E-001	6.79651E-005	10	...........
	1638	32.78	-2.24650E-001	-6.83052E-005	0.00000E+000	-2.24500E-001	6.46291E-005	10	...........
	1656	33.14	-2.42615E-001	-6.61867E-005	0.00000E+000	-2.42500E-001	7.79733E-005	10	...........
	1674	33.5	-2.60441E-001	-6.40782E-005	0.00000E+000	-2.60500E-001	6.42955E-005	10	...........
	1692	33.86	-2.78611E-001	-6.24001E-005	0.00000E+000	-2.78500E-001	7.26356E-005	10	...........
	1710	34.22	-2.96614E-001	-6.12191E-005	0.00000E+000	-2.96500E-001	7.03004E-005	10	...........
	1728	34.58	-3.14543E-001	-5.96594E-005	0.00000E+000	-3.14500E-001	6.85490E-005	10	...........
	1746	34.94	-3.32415E-001	-5.88670E-005	0.00000E+000	-3.32500E-001	6.21270E-005	10	...........
	1764	35.3	-3.50562E-001	-5.88904E-005	0.00000E+000	-3.50500E-001	6.57967E-005	10	...........
	1782	35.66	-3.68538E-001	-5.83949E-005	0.00000E+000	-3.68500E-001	6.33781E-005	10	...........
	1800	36.02	-3.86442E-001	-5.86518E-005	0.00000E+000	-3.86500E-001	5.99586E-005	10	...........
	1818	36.38	-4.04437E-001	-5.93291E-005	0.00000E+000	-4.04500E-001	6.84655E-005	10	...........
	1836	36.74	-4.22500E-001	-6.07854E-005	0.00000E+000	-4.22500E-001	6.07926E-005	10	...........
	1854	37.1	-4.40470E-001	-6.35261E-005	0.00000E+000	-4.40500E-001	7.35530E-005	10	...........
	1872	37.46	-4.58423E-001	-6.74695E-005	0.00000E+000	-4.58500E-001	6.28776E-005	10	...........
	1890	37.82	-4.76421E-001	-7.28542E-005	0.00000E+000	-4.76500E-001	7.02170E-005	10	...........
	1908	38.18	-4.94388E-001	-8.10330E-005	0.00000E+000	-4.94500E-001	6.20436E-005	10	...........
	1913	38.28	-4.99458E-001	-8.48646E-005	0.00000E+000	-4.99500E-001	6.72145E-005	10	...........
CURVE2	TABLE
	Pt	T	Vf	Im	Vu	Sig	Ach	IERange	Over
	#	s	V vs. Ref.	A	V	V	V	#	bits
	1914	38.3	-4.98884E-001	-7.89578E-005	0.00000E+000	-4.99000E-001	6.43789E-005	10	...........
	1939	38.8	-4.74007E-001	-4.65079E-005	0.00000E+000	-4.74000E-001	6.63805E-005	10	...........
	1964	39.3	-4.48984E-001	-3.69880E-005	0.00000E+000	-4.49000E-001	6.92996E-005	10	...........
	1989	39.8	-4.24007E-001	-3.33081E-005	0.00000E+000	-4.24000E-001	6.22938E-005	10	...........
	2014	40.3	-3.99048E-001	-3.19819E-005	0.00000E+000	-3.99000E-001	7.37198E-005	10	...........
	2039	40.8	-3.74026E-001	-3.13414E-005	0.00000E+000	-3.74000E-001	6.83821E-005	10	...........
	2064	41.3	-3.49074E-001	-3.06208E-005	0.00000E+000	-3.49000E-001	7.39701E-005	10	...........
	2089	41.8	-3.24080E-001	-2.93613E-005	0.00000E+000	-3.24000E-001	6.46291E-005	10	...........
	2114	42.3	-2.99055E-001	-2.78817E-005	0.00000E+000	-2.99000E-001	6.32113E-005	10	...........
	2139	42.8	-2.74168E-001	-2.67007E-005	0.00000E+000	-2.74000E-001	6.77983E-005	10	...........
	2164	43.3	-2.49097E-001	-2.55764E-005	0.00000E+000	-2.49000E-001	6.87992E-005	10	...........
	2189	43.8	-2.24170E-001	-2.39149E-005	0.00000E+000	-2.24000E-001	6.52129E-005	10	...........
	2214	44.3	-1.99204E-001	-2.31643E-005	0.00000E+000	-1.99000E-001	6.17100E-005	10	...........
	2239	44.8	-1.74131E-001	-2.14578E-005	0.00000E+000	-1.74000E-001	6.62971E-005	10	...........
	2264	45.3	-1.49230E-001	-2.03001E-005	0.00000E+000	-1.49000E-001	6.58801E-005	10	...........
	2289	45.8	-1.24228E-001	-1.79247E-005	0.00000E+000	-1.24000E-001	6.66307E-005	10	...........
	2314	46.3	-9.92735E-002	-1.60714E-005	0.00000E+000	-9.90000E-002	5.86242E-005	10	...........
	2339	46.8	-7.42756E-002	-1.45868E-005	0.00000E+000	-7.40000E-002	6.45457E-005	10	...........
	2364	47.3	-4.92265E-002	-1.22364E-005	0.00000E+000	-4.90000E-002	6.58801E-005	10	...........
	2389	47.8	-2.43102E-002	-1.11438E-005	0.00000E+000	-2.40000E-002	6.90494E-005	10	...........
	2414	48.3	6.12143E-004	-9.83432E-006	0.00000E+000	1.00002E-003	7.33028E-005	10	...........
	2439	48.8	2.56381E-002	-8.73169E-006	0.00000E+000	2.60000E-002	6.90494E-005	10	...........
	2464	49.3	5.06150E-002	-6.78000E-006	0.00000E+000	5.10000E-002	6.79651E-005	10	...........
	2489	49.8	7.55943E-002	-5.16526E-006	0.00000E+000	7.60000E-002	6.72979E-005	10	...........
	2514	50.3	1.00563E-001	-4.04595E-006	0.00000E+000	1.01000E-001	7.00502E-005	10	...........
	2539	50.8	1.25549E-001	-2.92164E-006	0.00000E+000	1.26000E-001	6.77983E-005	10	...........
	2564	51.3	1.50672E-001	-2.10926E-006	0.00000E+000	1.51000E-001	6.55465E-005	10	...........
	2589	51.8	1.75519E-001	-1.30356E-006	0.00000E+000	1.76000E-001	6.42955E-005	10	...........
	2614	52.3	2.00493E-001	-1.59231E-007	0.00000E+000	2.01000E-001	6.37117E-005	10	...........
	2639	52.8	2.25460E-001	1.41547E-006	0.00000E+000	2.26000E-001	7.02170E-005	10	...........
	2664	53.3	2.50399E-001	1.78079E-006	0.00000E+000	2.51000E-001	6.02088E-005	10	...........
	2689	53.8	2.75559E-001	3.20703E-006	0.00000E+000	2.76000E-001	6.62137E-005	10	...........
	2714	54.3	3.00377E-001	4.68999E-006	0.00000E+000	3.01000E-001	6.78817E-005	10	...........
	2739	54.8	3.25367E-001	5.84767E-006	0.00000E+000	3.26000E-001	6.34615E-005	10	...........
	2764	55.3	3.50334E-001	7.10042E-006	0.00000E+000	3.51000E-001	5.84574E-005	10	...........
	2789	55.8	3.75344E-001	9.58592E-006	0.00000E+000	3.76000E-001	7.20518E-005	10	...........
	2814	56.3	4.00373E-001	1.35510E-005	0.00000E+000	4.01000E-001	6.66307E-005	10	...........
	2839	56.8	4.25277E-001	2.05738E-005	0.00000E+000	4.26000E-001	6.15432E-005	10	...........
	2864	57.3	4.50253E-001	2.98969E-005	0.00000E+000	4.51000E-001	6.82153E-005	10	...........
	2889	57.8	4.75520E-001	3.81675E-005	0.00000E+000	4.76000E-001	6.38785E-005	10	...........
[...]
	12377	247.56	-4.35936E-001	-2.98384E-005	0.00000E+000	-4.36000E-001	6.34615E-005	10	...........
	12384	247.7	-4.29006E-001	-2.87992E-005	0.00000E+000	-4.29000E-001	7.73895E-005	10	...........
	12391	247.84	-4.21968E-001	-2.87491E-005	0.00000E+000	-4.22000E-001	6.83821E-005	10	...........
	12398	247.98	-4.14999E-001	-2.87758E-005	0.00000E+000	-4.15000E-001	7.01336E-005	10	...........
	12405	248.12	-4.08017E-001	-2.86691E-005	0.00000E+000	-4.08000E-001	6.69643E-005	10	...........
	12412	248.26	-4.01028E-001	-2.84639E-005	0.00000E+000	-4.01000E-001	7.85571E-005	10	...........
	12419	248.4	-3.94030E-001	-2.82737E-005	0.00000E+000	-3.94000E-001	7.05506E-005	10	...........
	12426	248.54	-3.86860E-001	-2.79651E-005	0.00000E+000	-3.87000E-001	7.08008E-005	10	...........
	12433	248.68	-3.80023E-001	-2.72528E-005	0.00000E+000	-3.80000E-001	7.24688E-005	10	...........
	12440	248.82	-3.73093E-001	-2.75648E-005	0.00000E+000	-3.73000E-001	8.14762E-005	10	...........
	12447	248.96	-3.66019E-001	-2.74196E-005	0.00000E+000	-3.66000E-001	7.16348E-005	10	...........
	12454	249.1	-3.59033E-001	-2.66606E-005	0.00000E+000	-3.59000E-001	6.78817E-005	10	...........
	12461	249.24	-3.52060E-001	-2.63337E-005	0.00000E+000	-3.52000E-001	6.95498E-005	10	...........
	12468	249.38	-3.45036E-001	-2.58716E-005	0.00000E+000	-3.45000E-001	7.59717E-005	10	...........
	12475	249.52	-3.38073E-001	-2.57265E-005	0.00000E+000	-3.38000E-001	7.45539E-005	10	...........
	12482	249.66	-3.30938E-001	-2.51009E-005	0.00000E+000	-3.31000E-001	6.90494E-005	10	...........
	12489	249.8	-3.24088E-001	-2.53645E-005	0.00000E+000	-3.24000E-001	7.07174E-005	10	...........
	12496	249.94	-3.17074E-001	-2.45355E-005	0.00000E+000	-3.17000E-001	7.34697E-005	10	...........
	12503	250.08	-3.10019E-001	-2.41902E-005	0.00000E+000	-3.10000E-001	6.57133E-005	10	...........
	12510	250.22	-3.03081E-001	-2.35463E-005	0.00000E+000	-3.03000E-001	6.78817E-005	10	...........
	12517	250.36	-2.96153E-001	-2.30692E-005	0.00000E+000	-2.96000E-001	6.83821E-005	10	...........
	12524	250.5	-2.89078E-001	-2.24136E-005	0.00000E+000	-2.89000E-001	7.75563E-005	10	...........
	12531	250.64	-2.82076E-001	-2.23135E-005	0.00000E+000	-2.82000E-001	7.20518E-005	10	...........
	12538	250.78	-2.75091E-001	-2.19215E-005	0.00000E+000	-2.75000E-001	6.95498E-005	10	...........
	12545	250.92	-2.68142E-001	-2.13260E-005	0.00000E+000	-2.68000E-001	7.23020E-005	10	...........
	12552	251.06	-2.61121E-001	-2.12626E-005	0.00000E+000	-2.61000E-001	6.67975E-005	10	...........
	12559	251.2	-2.54030E-001	-2.08089E-005	0.00000E+000	-2.54000E-001	6.40453E-005	10	...........
	12566	251.34	-2.47143E-001	-2.08856E-005	0.00000E+000	-2.47000E-001	6.59635E-005	10	...........
	12573	251.48	-2.40171E-001	-2.02818E-005	0.00000E+000	-2.40000E-001	7.47207E-005	10	...........
	12580	251.62	-2.33105E-001	-1.99048E-005	0.00000E+000	-2.33000E-001	7.63887E-005	10	...........
	12587	251.76	-2.26158E-001	-1.90824E-005	0.00000E+000	-2.26000E-001	6.87992E-005	10	...........
	12594	251.9	-2.19184E-001	-1.86203E-005	0.00000E+000	-2.19000E-001	6.72145E-005	10	...........
	12601	252.04	-2.12152E-001	-1.86520E-005	0.00000E+000	-2.12000E-001	7.28858E-005	10	...........
	12608	252.18	-2.05170E-001	-1.81282E-005	0.00000E+000	-2.05000E-001	7.20518E-005	10	...........
	12615	252.32	-1.98120E-001	-1.72391E-005	0.00000E+000	-1.98000E-001	6.54631E-005	10	...........
	12622	252.46	-1.91226E-001	-1.73992E-005	0.00000E+000	-1.91000E-001	7.65555E-005	10	...........
	12629	252.6	-1.84179E-001	-1.63817E-005	0.00000E+000	-1.84000E-001	6.95498E-005	10	...........
	12636	252.74	-1.77189E-001	-1.60531E-005	0.00000E+000	-1.77000E-001	6.68809E-005	10	...........
	12643	252.88	-1.70236E-001	-1.59680E-005	0.00000E+000	-1.70000E-001	7.03004E-005	10	...........
	12650	253.02	-1.63139E-001	-1.58496E-005	0.00000E+000	-1.63000E-001	6.97166E-005	10	...........
	12657	253.16	-1.56192E-001	-1.53658E-005	0.00000E+000	-1.56000E-001	7.04672E-005	10	...........
	12664	253.3	-1.49234E-001	-1.46085E-005	0.00000E+000	-1.49000E-001	7.23020E-005	10	...........
	12671	253.44	-1.42219E-001	-1.48036E-005	0.00000E+000	-1.42000E-001	7.10510E-005	10	...........
	12678	253.58	-1.35216E-001	-1.43566E-005	0.00000E+000	-1.35000E-001	6.27108E-005	10	...........
	12685	253.72	-1.28239E-001	-1.39529E-005	0.00000E+000	-1.28000E-001	6.57967E-005	10	...........
	12692	253.86	-1.21215E-001	-1.36193E-005	0.00000E+000	-1.21000E-001	5.93748E-005	10	...........
	12699	254	-1.14263E-001	-1.33724E-005	0.00000E+000	-1.14000E-001	6.85490E-005	10	...........
	12706	254.14	-1.07225E-001	-1.27068E-005	0.00000E+000	-1.07000E-001	6.27942E-005	10	...........
	12713	254.28	-1.00250E-001	-1.22548E-005	0.00000E+000	-1.00000E-001	7.06340E-005	10	...........
	12720	254.42	-9.33014E-002	-1.17677E-005	0.00000E+000	-9.30000E-002	6.66307E-005	10	...........
	12727	254.56	-8.60701E-002	-1.21764E-005	0.00000E+000	-8.60000E-002	6.32113E-005	10	...........
	12734	254.7	-7.92466E-002	-1.15225E-005	0.00000E+000	-7.90000E-002	6.26274E-005	10	...........
	12741	254.84	-7.22797E-002	-1.15325E-005	0.00000E+000	-7.20000E-002	7.58883E-005	10	...........
	12748	254.98	-6.52958E-002	-1.09403E-005	0.00000E+000	-6.50000E-002	6.72145E-005	10	...........
	12755	255.12	-5.82867E-002	-1.07418E-005	0.00000E+000	-5.80000E-002	7.18016E-005	10	...........
	12762	255.26	-5.12853E-002	-1.02497E-005	0.00000E+000	-5.10000E-002	6.71311E-005	10	...........
	12769	255.4	-4.42816E-002	-9.83265E-006	0.00000E+000	-4.40000E-002	7.33028E-005	10	...........
	12776	255.54	-3.73641E-002	-9.84933E-006	0.00000E+000	-3.70000E-002	6.76315E-005	10	...........
	12783	255.68	-3.01146E-002	-9.62581E-006	0.00000E+000	-3.00000E-002	6.37117E-005	10	...........
	12790	255.82	-2.32996E-002	-8.40141E-006	0.00000E+000	-2.30000E-002	6.90494E-005	10	...........
	12797	255.96	-1.63466E-002	-8.48148E-006	0.00000E+000	-1.60000E-002	6.31278E-005	10	...........
	12804	256.1	-9.23066E-003	-8.68499E-006	0.00000E+000	-8.99999E-003	6.55465E-005	10	...........
	12811	256.24	-2.30316E-003	-7.93600E-006	0.00000E+000	-1.99999E-003	6.30444E-005	10	...........
	12818	256.38	4.57605E-003	-8.05444E-006	0.00000E+000	5.00001E-003	7.12178E-005	10	...........
	12825	256.52	1.15959E-002	-7.90431E-006	0.00000E+000	1.20000E-002	7.06340E-005	10	...........
	12832	256.66	1.86575E-002	-7.67077E-006	0.00000E+000	1.90000E-002	6.53797E-005	10	...........
	12839	256.8	2.56351E-002	-7.30545E-006	0.00000E+000	2.60000E-002	6.11262E-005	10	...........
	12846	256.94	3.25978E-002	-7.00519E-006	0.00000E+000	3.30000E-002	7.12178E-005	10	...........
	12853	257.08	3.95164E-002	-7.07358E-006	0.00000E+000	4.00000E-002	7.92243E-005	10	...........
	12860	257.22	4.67576E-002	-6.46972E-006	0.00000E+000	4.70000E-002	7.25522E-005	10	...........
	12867	257.36	5.35893E-002	-6.18114E-006	0.00000E+000	5.40000E-002	6.84655E-005	10	...........
	12874	257.5	6.05848E-002	-5.71907E-006	0.00000E+000	6.10000E-002	7.62219E-005	10	...........
	12881	257.64	6.75948E-002	-6.02600E-006	0.00000E+000	6.80000E-002	7.48041E-005	10	...........
	12888	257.78	7.45928E-002	-5.39212E-006	0.00000E+000	7.50000E-002	7.17182E-005	10	...........
	12895	257.92	8.15359E-002	-5.79414E-006	0.00000E+000	8.20000E-002	6.51295E-005	10	...........
	12902	258.06	8.85699E-002	-4.74322E-006	0.00000E+000	8.90000E-002	7.18016E-005	10	...........
	12909	258.2	9.55577E-002	-4.27615E-006	0.00000E+000	9.60000E-002	6.63805E-005	10	...........
	12916	258.34	1.02715E-001	-4.50134E-006	0.00000E+000	1.03000E-001	6.73813E-005	10	...........
	12923	258.48	1.09538E-001	-3.84911E-006	0.00000E+000	1.10000E-001	6.47959E-005	10	...........
	12930	258.62	1.16542E-001	-3.96087E-006	0.00000E+000	1.17000E-001	7.34697E-005	10	...........
	12937	258.76	1.23575E-001	-3.50881E-006	0.00000E+000	1.24000E-001	6.82987E-005	10	...........
	12944	258.9	1.30512E-001	-3.43708E-006	0.00000E+000	1.31000E-001	6.52963E-005	10	...........
	12951	259.04	1.37503E-001	-3.42541E-006	0.00000E+000	1.38000E-001	6.66307E-005	10	...........
	12958	259.18	1.44531E-001	-8.96189E-006	0.00000E+000	1.45000E-001	7.48875E-005	10	...........
	12965	259.32	1.51529E-001	-2.28275E-006	0.00000E+000	1.52000E-001	6.82987E-005	10	...........
	12972	259.46	1.58554E-001	-2.73314E-006	0.00000E+000	1.59000E-001	7.60551E-005	10	...........
	12979	259.6	1.65481E-001	-2.25272E-006	0.00000E+000	1.66000E-001	6.71311E-005	10	...........
	12986	259.74	1.72497E-001	-1.88073E-006	0.00000E+000	1.73000E-001	7.89741E-005	10	...........
	12993	259.88	1.79571E-001	-2.05421E-006	0.00000E+000	1.80000E-001	7.03004E-005	10	...........
	12998	259.98	1.84486E-001	-1.57213E-006	0.00000E+000	1.85000E-001	7.18016E-005	10	...........