File: 20191129/matning1/CVTESTKRISTALL4BOX5.DTA
EXPLAIN
TAG	CV
TITLE	LABEL	CV	Test &Identifier
DATE	LABEL	11/29/2019	Date
TIME	LABEL	10:53:55	Time
NOTES	NOTES	1	&Notes...

PSTAT	PSTAT	REF600-16093	Potentiostat
VINIT	POTEN	0.00000E+000	T	Initial &E (V)
VLIMIT1	POTEN	8.00000E-001	F	Scan Limit &1 (V)
VLIMIT2	POTEN	-6.00000E-001	F	Scan Limit &2 (V)
VFINAL	POTEN	0.00000E+000	T	Final &E (V)
SCANRATE	QUANT	4.99999E+001	&Scan Rate (mV/s)
STEPSIZE	QUANT	1.00000E+000	St&ep Size (mV)
CYCLES	IQUANT	5	C&ycles (#)
IMODE	SELECTOR	1	I/E Range &Mode
IRANGE	QUANT	1.00000E+000	&Max Current (mA)
AREA	QUANT	1.00000E+000	Electrode &Area (cm^2)
ELECTRODETYPE	SELECTOR	0	Electrode Type
STRIPPING	TOGGLE	F	Used for Stripping
POLARITY	TOGGLE	F	Signal Polarity
CONDIT	TWOPARAM	F	1.50000E+001	0.00000E+000	Conditionin&g	Time(s)	E(V)
DELAY	TWOPARAM	T	5.00000E+000	0.00000E+000	Init. De&lay	Time(s)	Stab.(mV/s)
EQDELAY	QUANT	3.00000E+000	Equil. &Time (s)
IRCOMP	SELECTOR	0	IRCom&p
PFCOR	QUANT	0.00000E+000	PF Corr. (ohm)
SAMPLINGMODE	SELECTOR	2	Sampling &Mode
OCVCURVE	TABLE	20
	Pt	T	Vf	Vm	Ach	Over
	#	s	V vs. Ref.	V	V	bits
	0	0.25	1.17940E-001	1.17940E-001	7.26420E-005	...........
	1	0.5	1.17997E-001	1.20927E-001	8.53918E-005	...........
	2	0.75	1.18184E-001	1.15245E-001	8.69751E-005	...........
	3	1	1.18660E-001	1.35151E-001	9.08501E-005	...........
	4	1.25	1.19788E-001	1.12976E-001	9.28917E-005	...........
	5	1.5	1.21448E-001	1.32981E-001	8.35585E-005	...........
	6	1.75	1.23147E-001	1.31854E-001	8.59751E-005	...........
	7	2	1.25222E-001	1.34467E-001	8.48918E-005	...........
	8	2.25	1.27714E-001	1.17883E-001	8.68085E-005	...........
	9	2.5	1.29289E-001	1.37069E-001	8.77668E-005	...........
	10	2.75	1.29157E-001	1.13208E-001	8.45168E-005	...........
	11	3	1.27897E-001	1.32727E-001	8.31419E-005	...........
	12	3.25	1.26591E-001	1.31587E-001	8.78085E-005	...........
	13	3.5	1.26572E-001	1.35806E-001	7.43087E-005	...........
	14	3.75	1.28075E-001	1.18328E-001	8.71835E-005	...........
	15	4	1.29381E-001	1.32484E-001	6.86838E-005	...........
	16	4.25	1.29035E-001	1.15466E-001	8.66418E-005	...........
	17	4.5	1.27421E-001	1.32134E-001	7.36837E-005	...........
	18	4.75	1.25609E-001	1.12030E-001	9.28084E-005	...........
	19	5	1.24175E-001	1.33945E-001	8.03086E-005	...........
EOC	QUANT	0.1241748	Open Circuit (V)
PSTATMODEL	IQUANT	4	Pstat Model
PSTATSECTION	LABEL	REF600-16093	Pstat Section
PSTATSERIALNO	LABEL	16093	Pstat Serial Number
CTRLMODE	IQUANT	1	Control Mode
IESTAB	IQUANT	2	I/E Stability
CASPEED	IQUANT	2	Control Amp Speed
CONVENTION	IQUANT	1	Current Convention
ICHRANGE	IQUANT	2	Ich Range
ICHRANGEMODE	TOGGLE	F	Ich Auto Range
ICHOFFSETENABLE	TOGGLE	F	Ich Offset Enable
ICHOFFSET	QUANT	0	Ich Offset (V)
ICHFILTER	IQUANT	2	Ich Filter
VCHRANGE	IQUANT	2	Vch Range
VCHRANGEMODE	TOGGLE	F	Vch Auto Range
VCHOFFSETENABLE	TOGGLE	F	Vch Offset Enable
VCHOFFSET	QUANT	0	Vch Offset (V)
VCHFILTER	IQUANT	2	Vch Filter
ACHRANGE	IQUANT	2	Ach Range
ACHOFFSETENABLE	TOGGLE	F	Ach Offset Enable
ACHOFFSET	QUANT	0	Ach Offset (V)
ACHFILTER	IQUANT	1	Ach Filter
IERANGELOWERLIMIT	IQUANT	1	I/E Range Lower Limit
IERANGEMODE	TOGGLE	F	I/E AutoRange
IERANGE	IQUANT	9	I/E Range
POSFEEDENABLE	TOGGLE	F	Positive Feedback IR Comp
POSFEEDRESISTANCE	QUANT	0	Positive Feedback Resistance (ohm)
ACHSELECT	IQUANT	0	Ach Select
CABLEID	IQUANT	14	Cable ID
DCCALDATE	LABEL	11/5/2019	DC Calibration Date
ACCALDATE	LABEL		AC Calibration Date
THERMOSELECT	IQUANT	1	Thermo Select
FRAMEWORKVERSION	QUANT	6.12	Framework Version
INSTRUMENTVERSION	LABEL	3.11	Instrument Version
CURVE1	TABLE
	Pt	T	Vf	Im	Vu	Sig	Ach	IERange	Over
	#	s	V vs. Ref.	A	V	V	V	#	bits
	0	0.02	1.23784E-001	-4.00541E-007	0.00000E+000	1.24150E-001	7.91409E-005	9	...........
	19	0.4	1.42748E-001	-2.66925E-007	0.00000E+000	1.43150E-001	7.56381E-005	9	...........
	38	0.78	1.61746E-001	-3.76854E-007	0.00000E+000	1.62150E-001	8.15596E-005	9	...........
	57	1.16	1.80798E-001	-2.27891E-007	0.00000E+000	1.81150E-001	7.84737E-005	9	...........
	76	1.54	1.99909E-001	3.03572E-007	0.00000E+000	2.00150E-001	7.88073E-005	9	...........
	95	1.92	2.18788E-001	1.08902E-007	0.00000E+000	2.19150E-001	8.27272E-005	9	...........
	114	2.3	2.37640E-001	2.45855E-007	0.00000E+000	2.38150E-001	7.61385E-005	9	...........
	133	2.68	2.56604E-001	2.76381E-007	0.00000E+000	2.57150E-001	8.02252E-005	9	...........
	152	3.06	2.75622E-001	3.31596E-007	0.00000E+000	2.76150E-001	7.32194E-005	9	...........
	171	3.44	2.94595E-001	6.71726E-007	0.00000E+000	2.95150E-001	7.83903E-005	9	...........
	190	3.82	3.13613E-001	6.65887E-007	0.00000E+000	3.14150E-001	7.85571E-005	9	...........
	209	4.2	3.32766E-001	5.80313E-007	0.00000E+000	3.33150E-001	7.83903E-005	9	...........
	228	4.58	3.51529E-001	5.42613E-007	0.00000E+000	3.52150E-001	7.66389E-005	9	...........
	247	4.96	3.70553E-001	7.11760E-007	0.00000E+000	3.71150E-001	7.92243E-005	9	...........
	266	5.34	3.89500E-001	8.57054E-007	0.00000E+000	3.90150E-001	7.46373E-005	9	...........
	285	5.72	4.08529E-001	9.31285E-007	0.00000E+000	4.09150E-001	7.98082E-005	9	...........
	304	6.1	4.27604E-001	1.55967E-006	0.00000E+000	4.28150E-001	6.87158E-005	9	...........
	323	6.48	4.46588E-001	1.79587E-006	0.00000E+000	4.47150E-001	7.45539E-005	9	...........
	342	6.86	4.65609E-001	2.14134E-006	0.00000E+000	4.66150E-001	7.62219E-005	9	...........
	361	7.24	4.84519E-001	1.56384E-006	0.00000E+000	4.85150E-001	8.11426E-005	9	...........
	380	7.62	5.03404E-001	1.68911E-006	0.00000E+000	5.04150E-001	8.26438E-005	9	...........
	399	8	5.22385E-001	1.82506E-006	0.00000E+000	5.23150E-001	7.89741E-005	9	...........
	418	8.38	5.41382E-001	2.27245E-006	0.00000E+000	5.42150E-001	7.68891E-005	9	...........
	437	8.76	5.60365E-001	1.91965E-006	0.00000E+000	5.61150E-001	7.64721E-005	9	...........
	456	9.14	5.79384E-001	1.97386E-006	0.00000E+000	5.80150E-001	8.21434E-005	9	...........
	475	9.52	5.98401E-001	2.12699E-006	0.00000E+000	5.99150E-001	7.58883E-005	9	...........
	494	9.9	6.17400E-001	2.07878E-006	0.00000E+000	6.18150E-001	8.02252E-005	9	...........
	513	10.28	6.36330E-001	2.95238E-006	0.00000E+000	6.37150E-001	7.86405E-005	9	...........
	532	10.66	6.55276E-001	3.10451E-006	0.00000E+000	6.56150E-001	9.29022E-005	9	...........
	551	11.04	6.74247E-001	4.24884E-006	0.00000E+000	6.75150E-001	8.64803E-005	9	...........
	570	11.42	6.93259E-001	4.09204E-006	0.00000E+000	6.94150E-001	8.12260E-005	9	...........
	589	11.8	7.12274E-001	5.66457E-006	0.00000E+000	7.13150E-001	8.73143E-005	9	...........
	608	12.18	7.31375E-001	5.03603E-006	0.00000E+000	7.32150E-001	7.02170E-005	9	...........
	627	12.56	7.50357E-001	4.10455E-006	0.00000E+000	7.51150E-001	7.52211E-005	9	...........
	646	12.94	7.69247E-001	3.81279E-006	0.00000E+000	7.70150E-001	7.61385E-005	9	...........
	665	13.32	7.88204E-001	4.42666E-006	0.00000E+000	7.89150E-001	9.13176E-005	9	...........
	684	13.7	7.91160E-001	3.97994E-006	0.00000E+000	7.92150E-001	7.73895E-005	9	...........
	703	14.08	7.72203E-001	3.55757E-006	0.00000E+000	7.73150E-001	7.95580E-005	9	...........
	722	14.46	7.53193E-001	3.43380E-006	0.00000E+000	7.54150E-001	7.50543E-005	9	...........
	741	14.84	7.34388E-001	3.70920E-006	0.00000E+000	7.35150E-001	7.48875E-005	9	...........
	760	15.22	7.15274E-001	3.56174E-006	0.00000E+000	7.16150E-001	7.98916E-005	9	...........
	779	15.6	6.96265E-001	3.85700E-006	0.00000E+000	6.97150E-001	7.83069E-005	9	...........
	798	15.98	6.77305E-001	3.83665E-006	0.00000E+000	6.78150E-001	7.02170E-005	9	...........
	817	16.36	6.58223E-001	3.06948E-006	0.00000E+000	6.59150E-001	7.68891E-005	9	...........
	836	16.74	6.39297E-001	2.63560E-006	0.00000E+000	6.40150E-001	7.71393E-005	9	...........
	855	17.12	6.20288E-001	2.33718E-006	0.00000E+000	6.21150E-001	8.09758E-005	9	...........
	874	17.5	6.01371E-001	2.18287E-006	0.00000E+000	6.02150E-001	8.08924E-005	9	...........
	893	17.88	5.82425E-001	1.92632E-006	0.00000E+000	5.83150E-001	7.86405E-005	9	...........
	912	18.26	5.63384E-001	1.74533E-006	0.00000E+000	5.64150E-001	8.13928E-005	9	...........
	931	18.64	5.44380E-001	1.59937E-006	0.00000E+000	5.45150E-001	7.63053E-005	9	...........
	950	19.02	5.25423E-001	1.75517E-006	0.00000E+000	5.26150E-001	7.42203E-005	9	...........
	969	19.4	5.06376E-001	1.74299E-006	0.00000E+000	5.07150E-001	7.53045E-005	9	...........
	988	19.78	4.87448E-001	1.51363E-006	0.00000E+000	4.88150E-001	8.20600E-005	9	...........
	1007	20.16	4.68502E-001	1.41037E-006	0.00000E+000	4.69150E-001	7.18016E-005	9	...........
	1026	20.54	4.49618E-001	1.32646E-006	0.00000E+000	4.50150E-001	7.43871E-005	9	...........
	1045	20.92	4.30485E-001	8.76237E-007	0.00000E+000	4.31150E-001	7.52211E-005	9	...........
	1064	21.3	4.11488E-001	1.59103E-006	0.00000E+000	4.12150E-001	7.63887E-005	9	...........
	1083	21.68	3.92554E-001	1.39536E-006	0.00000E+000	3.93150E-001	7.30526E-005	9	...........
	1102	22.06	3.73448E-001	1.31862E-006	0.00000E+000	3.74150E-001	7.50543E-005	9	...........
	1121	22.44	3.54570E-001	3.99322E-007	0.00000E+000	3.55150E-001	8.70641E-005	9	...........
	1140	22.82	3.35519E-001	2.97066E-007	0.00000E+000	3.36150E-001	7.61385E-005	9	...........
	1159	23.2	3.16658E-001	2.95898E-007	0.00000E+000	3.17150E-001	7.51377E-005	9	...........
	1178	23.58	2.97626E-001	1.22080E-007	0.00000E+000	2.98150E-001	7.63887E-005	9	...........
	1197	23.96	2.78622E-001	7.78753E-008	0.00000E+000	2.79150E-001	8.18098E-005	9	...........
	1216	24.34	2.59767E-001	3.91482E-007	0.00000E+000	2.60150E-001	6.02922E-005	9	...........
	1235	24.72	2.40633E-001	-1.37312E-007	0.00000E+000	2.41150E-001	6.48793E-005	9	...........
	1254	25.1	2.21554E-001	-2.26723E-007	0.00000E+000	2.22150E-001	6.78817E-005	9	...........
	1273	25.48	2.02687E-001	-5.74359E-007	0.00000E+000	2.03150E-001	6.99668E-005	9	...........
	1292	25.86	1.83713E-001	-6.33911E-007	0.00000E+000	1.84150E-001	6.92162E-005	9	...........
	1311	26.24	1.64777E-001	-5.45734E-008	0.00000E+000	1.65150E-001	7.28858E-005	9	...........
	1330	26.62	1.45758E-001	-1.82685E-007	0.00000E+000	1.46150E-001	7.44705E-005	9	...........
	1349	27	1.26799E-001	-5.93543E-007	0.00000E+000	1.27150E-001	7.37198E-005	9	...........
	1368	27.38	1.07872E-001	-6.46922E-007	0.00000E+000	1.08150E-001	5.47043E-005	9	...........
	1387	27.76	8.89011E-002	-8.31250E-007	0.00000E+000	8.91500E-002	5.61221E-005	9	...........
	1406	28.14	6.99589E-002	-9.08817E-007	0.00000E+000	7.01500E-002	5.63723E-005	9	...........
	1425	28.52	5.08494E-002	-1.35804E-006	0.00000E+000	5.11500E-002	6.32113E-005	9	...........
	1444	28.9	3.19980E-002	-1.45396E-006	0.00000E+000	3.22000E-002	6.86324E-005	9	...........
	1463	29.28	1.28643E-002	-1.04827E-006	0.00000E+000	1.32000E-002	7.73061E-005	9	...........
	1482	29.66	-6.05257E-003	-1.16854E-006	0.00000E+000	-5.79999E-003	7.52211E-005	9	...........
	1501	30.04	-2.50103E-002	-1.41226E-006	0.00000E+000	-2.48000E-002	7.24688E-005	9	...........
	1520	30.42	-4.40521E-002	-1.41876E-006	0.00000E+000	-4.38000E-002	7.25522E-005	9	...........
	1539	30.8	-6.30791E-002	-1.51851E-006	0.00000E+000	-6.28000E-002	7.58883E-005	9	...........
	1558	31.18	-8.19174E-002	-1.61477E-006	0.00000E+000	-8.18000E-002	6.58801E-005	9	...........
	1577	31.56	-1.00753E-001	-2.00694E-006	0.00000E+000	-1.00800E-001	6.19602E-005	9	...........
	1596	31.94	-1.19789E-001	-2.08634E-006	0.00000E+000	-1.19800E-001	6.04590E-005	9	...........
	1615	32.32	-1.38770E-001	-2.24381E-006	0.00000E+000	-1.38800E-001	5.78736E-005	9	...........
	1634	32.7	-1.57795E-001	-2.61013E-006	0.00000E+000	-1.57800E-001	5.77901E-005	9	...........
	1653	33.08	-1.76813E-001	-2.94092E-006	0.00000E+000	-1.76800E-001	5.56217E-005	9	...........
	1672	33.46	-1.95950E-001	-3.12942E-006	0.00000E+000	-1.95800E-001	7.02170E-005	9	...........
	1691	33.84	-2.14963E-001	-3.31942E-006	0.00000E+000	-2.14800E-001	7.93078E-005	9	...........
	1710	34.22	-2.33713E-001	-3.37513E-006	0.00000E+000	-2.33800E-001	7.59717E-005	9	...........
	1729	34.6	-2.52776E-001	-3.19497E-006	0.00000E+000	-2.52800E-001	6.52129E-005	9	...........
	1748	34.98	-2.71849E-001	-3.26287E-006	0.00000E+000	-2.71800E-001	7.51377E-005	9	...........
	1767	35.36	-2.90796E-001	-3.60733E-006	0.00000E+000	-2.90800E-001	7.14680E-005	9	...........
	1786	35.74	-3.09786E-001	-3.57430E-006	0.00000E+000	-3.09800E-001	7.93078E-005	9	...........
	1805	36.12	-3.28852E-001	-3.66972E-006	0.00000E+000	-3.28800E-001	7.88907E-005	9	...........
	1824	36.5	-3.47827E-001	-3.67456E-006	0.00000E+000	-3.47800E-001	8.69807E-005	9	...........
	1843	36.88	-3.66814E-001	-3.82385E-006	0.00000E+000	-3.66800E-001	7.19684E-005	9	...........
	1862	37.26	-3.85626E-001	-4.14313E-006	0.00000E+000	-3.85800E-001	8.33944E-005	9	...........
	1881	37.64	-4.04751E-001	-4.01052E-006	0.00000E+000	-4.04800E-001	7.83069E-005	9	...........
	1900	38.02	-4.23587E-001	-4.50945E-006	0.00000E+000	-4.23800E-001	6.02088E-005	9	...........
	1919	38.4	-4.42659E-001	-4.29193E-006	0.00000E+000	-4.42800E-001	7.33862E-005	9	...........
	1938	38.78	-4.61712E-001	-4.83840E-006	0.00000E+000	-4.61800E-001	7.85571E-005	9	...........
	1957	39.16	-4.80683E-001	-4.66542E-006	0.00000E+000	-4.80800E-001	8.22268E-005	9	...........
	1976	39.54	-4.99695E-001	-4.48860E-006	0.00000E+000	-4.99800E-001	7.61385E-005	9	...........
	1995	39.92	-5.18418E-001	-5.48964E-006	0.00000E+000	-5.18800E-001	7.32194E-005	9	...........
	2014	40.3	-5.37560E-001	-5.55303E-006	0.00000E+000	-5.37800E-001	6.74647E-005	9	...........
	2033	40.68	-5.56565E-001	-5.32733E-006	0.00000E+000	-5.56800E-001	8.36446E-005	9	...........
	2052	41.06	-5.75615E-001	-5.77505E-006	0.00000E+000	-5.75800E-001	7.97248E-005	9	...........
	2071	41.44	-5.94574E-001	-5.74436E-006	0.00000E+000	-5.94800E-001	7.78899E-005	9	...........
	2076	41.54	-5.99532E-001	-6.04796E-006	0.00000E+000	-5.99800E-001	7.02170E-005	9	...........
CURVE2	TABLE
	Pt	T	Vf	Im	Vu	Sig	Ach	IERange	Over
	#	s	V vs. Ref.	A	V	V	V	#	bits
	2077	41.56	-5.98650E-001	-5.79490E-006	0.00000E+000	-5.99000E-001	7.16348E-005	9	...........
	2103	42.08	-5.72741E-001	-4.70479E-006	0.00000E+000	-5.73000E-001	7.74729E-005	9	...........
	2129	42.6	-5.46801E-001	-3.61551E-006	0.00000E+000	-5.47000E-001	7.60551E-005	9	...........
	2155	43.12	-5.20952E-001	-3.37363E-006	0.00000E+000	-5.21000E-001	7.56381E-005	9	...........
	2181	43.64	-4.94883E-001	-3.03350E-006	0.00000E+000	-4.95000E-001	7.44705E-005	9	...........
	2207	44.16	-4.68796E-001	-2.79129E-006	0.00000E+000	-4.69000E-001	7.60551E-005	9	...........
	2233	44.68	-4.42858E-001	-2.48219E-006	0.00000E+000	-4.43000E-001	7.54713E-005	9	...........
	2259	45.2	-4.16965E-001	-2.83433E-006	0.00000E+000	-4.17000E-001	7.42203E-005	9	...........
	2285	45.72	-3.90936E-001	-2.81481E-006	0.00000E+000	-3.91000E-001	7.76397E-005	9	...........
	2311	46.24	-3.64811E-001	-1.81310E-006	0.00000E+000	-3.65000E-001	7.28858E-005	9	...........
	2337	46.76	-3.38964E-001	-1.54787E-006	0.00000E+000	-3.39000E-001	7.57215E-005	9	...........
	2363	47.28	-3.13022E-001	-1.41676E-006	0.00000E+000	-3.13000E-001	7.50543E-005	9	...........
	2389	47.8	-2.86811E-001	-1.88950E-006	0.00000E+000	-2.87000E-001	6.33781E-005	9	...........
	2415	48.32	-2.60851E-001	-1.86882E-006	0.00000E+000	-2.61000E-001	6.52129E-005	9	...........
	2441	48.84	-2.34954E-001	-1.34586E-006	0.00000E+000	-2.35000E-001	7.19684E-005	9	...........
	2467	49.36	-2.09056E-001	-9.40345E-007	0.00000E+000	-2.09000E-001	7.92243E-005	9	...........
	2493	49.88	-1.83157E-001	-8.78457E-007	0.00000E+000	-1.83000E-001	7.83069E-005	9	...........
	2519	50.4	-1.57150E-001	-7.37668E-007	0.00000E+000	-1.57000E-001	7.74729E-005	9	...........
	2545	50.92	-1.31129E-001	-7.25824E-007	0.00000E+000	-1.31000E-001	8.30608E-005	9	...........
	2571	51.44	-1.05154E-001	-8.57272E-007	0.00000E+000	-1.05000E-001	7.27190E-005	9	...........
	2597	51.96	-7.91898E-002	-5.02630E-007	0.00000E+000	-7.90000E-002	7.17182E-005	9	...........
	2623	52.48	-5.32348E-002	-4.25730E-007	0.00000E+000	-5.30000E-002	6.70477E-005	9	...........
	2649	53	-2.71871E-002	-3.69574E-009	0.00000E+000	-2.70000E-002	7.72227E-005	9	...........
	2675	53.52	-1.21395E-003	-4.09382E-007	0.00000E+000	-9.99995E-004	6.52129E-005	9	...........
	2701	54.04	2.46255E-002	-1.85854E-007	0.00000E+000	2.50000E-002	8.18932E-005	9	...........
	2727	54.56	5.06677E-002	4.91402E-007	0.00000E+000	5.10000E-002	7.41369E-005	9	...........
	2753	55.08	7.67902E-002	-1.61333E-007	0.00000E+000	7.70000E-002	7.41369E-005	9	...........
	2779	55.6	1.02652E-001	2.19499E-007	0.00000E+000	1.03000E-001	7.43037E-005	9	...........
	2805	56.12	1.28562E-001	3.47276E-007	0.00000E+000	1.29000E-001	7.40535E-005	9	...........
	2831	56.64	1.54568E-001	1.48937E-007	0.00000E+000	1.55000E-001	7.84737E-005	9	...........
	2857	57.16	1.80757E-001	2.36013E-007	0.00000E+000	1.81000E-001	7.05506E-005	9	...........
	2883	57.68	2.06503E-001	3.34098E-007	0.00000E+000	2.07000E-001	8.03920E-005	9	...........
	2909	58.2	2.32463E-001	5.37275E-007	0.00000E+000	2.33000E-001	7.08008E-005	9	...........
	2935	58.72	2.58462E-001	1.70079E-006	0.00000E+000	2.59000E-001	7.15514E-005	9	...........
	2961	59.24	2.84484E-001	8.12181E-007	0.00000E+000	2.85000E-001	7.32194E-005	9	...........
	2987	59.76	3.10422E-001	9.34288E-007	0.00000E+000	3.11000E-001	7.40535E-005	9	...........
	3013	60.28	3.36410E-001	1.09259E-006	0.00000E+000	3.37000E-001	7.31360E-005	9	...........
	3039	60.8	3.62344E-001	1.29710E-006	0.00000E+000	3.63000E-001	6.94664E-005	9	...........
[...]
	13375	267.52	-5.00860E-001	-4.84875E-006	0.00000E+000	-5.01000E-001	6.42955E-005	9	...........
	13382	267.66	-4.93814E-001	-5.02373E-006	0.00000E+000	-4.94000E-001	6.85490E-005	9	...........
	13389	267.8	-4.86811E-001	-5.11264E-006	0.00000E+000	-4.87000E-001	6.61303E-005	9	...........
	13396	267.94	-4.79723E-001	-4.95267E-006	0.00000E+000	-4.80000E-001	5.54549E-005	9	...........
	13403	268.08	-4.73001E-001	-4.60086E-006	0.00000E+000	-4.73000E-001	7.81401E-005	9	...........
	13410	268.22	-4.65741E-001	-4.64957E-006	0.00000E+000	-4.66000E-001	7.13012E-005	9	...........
	13417	268.36	-4.58736E-001	-4.64090E-006	0.00000E+000	-4.59000E-001	5.93748E-005	9	...........
	13424	268.5	-4.51916E-001	-4.18200E-006	0.00000E+000	-4.52000E-001	7.02170E-005	9	...........
	13431	268.64	-4.44786E-001	-4.61321E-006	0.00000E+000	-4.45000E-001	7.02170E-005	9	...........
	13438	268.78	-4.37756E-001	-4.24372E-006	0.00000E+000	-4.38000E-001	6.03756E-005	9	...........
	13445	268.92	-4.30973E-001	-3.82919E-006	0.00000E+000	-4.31000E-001	7.94746E-005	9	...........
	13452	269.06	-4.23920E-001	-4.11244E-006	0.00000E+000	-4.24000E-001	7.55547E-005	9	...........
	13459	269.2	-4.16985E-001	-3.78299E-006	0.00000E+000	-4.17000E-001	7.06340E-005	9	...........
	13466	269.34	-4.09860E-001	-3.65921E-006	0.00000E+000	-4.10000E-001	6.72979E-005	9	...........
	13473	269.48	-4.02970E-001	-3.74429E-006	0.00000E+000	-4.03000E-001	7.12178E-005	9	...........
	13480	269.62	-3.96064E-001	-3.73027E-006	0.00000E+000	-3.96000E-001	7.34697E-005	9	...........
	13487	269.76	-3.88801E-001	-3.40249E-006	0.00000E+000	-3.89000E-001	6.68809E-005	9	...........
	13494	269.9	-3.81957E-001	-3.25136E-006	0.00000E+000	-3.82000E-001	6.59635E-005	9	...........
	13501	270.04	-3.75005E-001	-3.13292E-006	0.00000E+000	-3.75000E-001	6.90494E-005	9	...........
	13508	270.18	-3.67793E-001	-3.11390E-006	0.00000E+000	-3.68000E-001	5.54549E-005	9	...........
	13515	270.32	-3.60978E-001	-2.82565E-006	0.00000E+000	-3.61000E-001	6.98000E-005	9	...........
	13522	270.46	-3.53951E-001	-2.48619E-006	0.00000E+000	-3.54000E-001	6.68809E-005	9	...........
	13529	270.6	-3.46889E-001	-2.83950E-006	0.00000E+000	-3.47000E-001	5.97084E-005	9	...........
	13536	270.74	-3.40003E-001	-2.47034E-006	0.00000E+000	-3.40000E-001	6.86324E-005	9	...........
	13543	270.88	-3.32808E-001	-2.25416E-006	0.00000E+000	-3.33000E-001	6.89660E-005	9	...........
	13550	271.02	-3.25954E-001	-2.78528E-006	0.00000E+000	-3.26000E-001	6.40453E-005	9	...........
	13557	271.16	-3.19038E-001	-2.56092E-006	0.00000E+000	-3.19000E-001	7.03004E-005	9	...........
	13564	271.3	-3.11947E-001	-2.07633E-006	0.00000E+000	-3.12000E-001	6.87158E-005	9	...........
	13571	271.44	-3.04997E-001	-2.61997E-006	0.00000E+000	-3.05000E-001	6.98834E-005	9	...........
	13578	271.58	-2.98023E-001	-2.22730E-006	0.00000E+000	-2.98000E-001	7.04672E-005	9	...........
	13585	271.72	-2.90972E-001	-2.03079E-006	0.00000E+000	-2.91000E-001	7.59717E-005	9	...........
	13592	271.86	-2.84010E-001	-2.34023E-006	0.00000E+000	-2.84000E-001	7.06340E-005	9	...........
	13599	272	-2.76935E-001	-2.03930E-006	0.00000E+000	-2.77000E-001	7.25522E-005	9	...........
	13606	272.14	-2.70057E-001	-2.28318E-006	0.00000E+000	-2.70000E-001	6.95498E-005	9	...........
	13613	272.28	-2.63012E-001	-1.92937E-006	0.00000E+000	-2.63000E-001	7.31360E-005	9	...........
	13620	272.42	-2.55986E-001	-1.87232E-006	0.00000E+000	-2.56000E-001	6.88826E-005	9	...........
	13627	272.56	-2.49047E-001	-1.52952E-006	0.00000E+000	-2.49000E-001	6.26274E-005	9	...........
	13634	272.7	-2.41847E-001	-1.68466E-006	0.00000E+000	-2.42000E-001	5.50379E-005	9	...........
	13641	272.84	-2.35006E-001	-1.74188E-006	0.00000E+000	-2.35000E-001	7.07174E-005	9	...........
	13648	272.98	-2.28114E-001	-1.94172E-006	0.00000E+000	-2.28000E-001	6.13764E-005	9	...........
	13655	273.12	-2.20933E-001	-1.51735E-006	0.00000E+000	-2.21000E-001	5.35367E-005	9	...........
	13662	273.26	-2.14064E-001	-1.65697E-006	0.00000E+000	-2.14000E-001	6.47125E-005	9	...........
	13669	273.4	-2.07051E-001	-1.78475E-006	0.00000E+000	-2.07000E-001	7.16348E-005	9	...........
	13676	273.54	-1.99944E-001	-1.24161E-006	0.00000E+000	-2.00000E-001	5.25359E-005	9	...........
	13683	273.68	-1.93133E-001	-1.47865E-006	0.00000E+000	-1.93000E-001	6.42121E-005	9	...........
	13690	273.82	-1.86148E-001	-1.45129E-006	0.00000E+000	-1.86000E-001	6.58801E-005	9	...........
	13697	273.96	-1.79077E-001	-1.50083E-006	0.00000E+000	-1.79000E-001	6.69643E-005	9	...........
	13704	274.1	-1.72180E-001	-1.23560E-006	0.00000E+000	-1.72000E-001	6.51295E-005	9	...........
	13711	274.24	-1.65110E-001	-1.16471E-006	0.00000E+000	-1.65000E-001	6.25440E-005	9	...........
	13718	274.38	-1.58125E-001	-1.27564E-006	0.00000E+000	-1.58000E-001	6.80485E-005	9	...........
	13725	274.52	-1.51169E-001	-1.11350E-006	0.00000E+000	-1.51000E-001	6.89660E-005	9	...........
	13732	274.66	-1.44123E-001	-1.08797E-006	0.00000E+000	-1.44000E-001	6.77983E-005	9	...........
	13739	274.8	-1.37013E-001	-8.01390E-007	0.00000E+000	-1.37000E-001	4.76152E-005	9	...........
	13746	274.94	-1.30168E-001	-1.01224E-006	0.00000E+000	-1.30000E-001	6.69643E-005	9	...........
	13753	275.08	-1.23151E-001	-1.15937E-006	0.00000E+000	-1.23000E-001	6.19602E-005	9	...........
	13760	275.22	-1.16075E-001	-6.57098E-007	0.00000E+000	-1.16000E-001	5.02840E-005	9	...........
	13767	275.36	-1.09204E-001	-8.69116E-007	0.00000E+000	-1.09000E-001	6.09594E-005	9	...........
	13774	275.5	-1.02195E-001	-1.02225E-006	0.00000E+000	-1.02000E-001	7.13846E-005	9	...........
	13781	275.64	-9.50908E-002	-5.54342E-007	0.00000E+000	-9.50000E-002	5.18686E-005	9	...........
	13788	275.78	-8.80813E-002	-7.28994E-007	0.00000E+000	-8.80000E-002	6.19602E-005	9	...........
	13795	275.92	-8.11664E-002	-9.19660E-007	0.00000E+000	-8.10000E-002	5.92080E-005	9	...........
	13802	276.06	-7.42663E-002	-5.96378E-007	0.00000E+000	-7.40000E-002	7.07174E-005	9	...........
	13809	276.2	-6.71919E-002	-2.92180E-008	0.00000E+000	-6.70000E-002	6.32947E-005	9	...........
	13816	276.34	-6.02079E-002	-4.71436E-007	0.00000E+000	-6.00000E-002	7.02170E-005	9	...........
	13823	276.48	-5.32165E-002	-4.88618E-007	0.00000E+000	-5.30000E-002	6.51295E-005	9	...........
	13830	276.62	-4.62124E-002	-3.22473E-007	0.00000E+000	-4.60000E-002	7.60551E-005	9	...........
	13837	276.76	-3.92421E-002	2.53195E-007	0.00000E+000	-3.90000E-002	6.82153E-005	9	...........
	13844	276.9	-3.20939E-002	-4.89285E-007	0.00000E+000	-3.20000E-002	6.54631E-005	9	...........
	13851	277.04	-2.50888E-002	1.10570E-007	0.00000E+000	-2.50000E-002	5.28695E-005	9	...........
	13858	277.18	-1.82596E-002	-2.34397E-007	0.00000E+000	-1.80000E-002	7.32194E-005	9	...........
	13865	277.32	-1.12326E-002	-1.47488E-007	0.00000E+000	-1.10000E-002	6.74647E-005	9	...........
	13872	277.46	-4.22858E-003	-6.94196E-008	0.00000E+000	-3.99999E-003	6.22938E-005	9	...........
	13879	277.6	2.60359E-003	-2.73830E-008	0.00000E+000	3.00001E-003	7.10510E-005	9	...........
	13886	277.74	9.67871E-003	-6.74179E-008	0.00000E+000	1.00000E-002	7.03838E-005	9	...........
	13893	277.88	1.66084E-002	6.46971E-008	0.00000E+000	1.70000E-002	7.22186E-005	9	...........
	13900	278.02	2.38834E-002	3.40104E-007	0.00000E+000	2.40000E-002	6.32113E-005	9	...........
	13907	278.16	3.06551E-002	4.92069E-007	0.00000E+000	3.10000E-002	6.47959E-005	9	...........
	13914	278.3	3.76614E-002	2.21667E-007	0.00000E+000	3.80000E-002	6.27942E-005	9	...........
	13921	278.44	4.48875E-002	6.98749E-007	0.00000E+000	4.50000E-002	5.13682E-005	9	...........
	13928	278.58	5.16512E-002	2.90394E-007	0.00000E+000	5.20000E-002	6.05424E-005	9	...........
	13935	278.72	5.86591E-002	3.93317E-007	0.00000E+000	5.90000E-002	6.55465E-005	9	...........
	13942	278.86	6.56680E-002	5.30269E-007	0.00000E+000	6.60000E-002	6.49627E-005	9	...........
	13949	279	7.26123E-002	1.11761E-006	0.00000E+000	7.30000E-002	6.48793E-005	9	...........
	13956	279.14	7.97387E-002	6.06335E-007	0.00000E+000	8.00000E-002	5.82072E-005	9	...........
	13963	279.28	8.66338E-002	5.73807E-007	0.00000E+000	8.70000E-002	6.42121E-005	9	...........
	13970	279.42	9.35429E-002	7.31611E-007	0.00000E+000	9.40000E-002	6.19602E-005	9	...........
	13977	279.56	1.00795E-001	7.74482E-007	0.00000E+000	1.01000E-001	6.55465E-005	9	...........
	13984	279.7	1.07590E-001	7.28942E-007	0.00000E+000	1.08000E-001	6.12096E-005	9	...........
	13991	279.84	1.14583E-001	1.37734E-006	0.00000E+000	1.15000E-001	7.60551E-005	9	...........
	13998	279.98	1.21636E-001	9.29784E-007	0.00000E+000	1.22000E-001	6.15432E-005	9	...........
	14000	280.02	1.23705E-001	1.21837E-006	0.00000E+000	1.24000E-001	5.05342E-005	9	...........