File: 20191129/matning1/CVTESTKRISTALL4BOX5_2.DTA
EXPLAIN
TAG	CV
TITLE	LABEL	CV	Test &Identifier
DATE	LABEL	11/29/2019	Date
TIME	LABEL	11:03:20	Time
NOTES	NOTES	1	&Notes...

PSTAT	PSTAT	REF600-16093	Potentiostat
VINIT	POTEN	0.00000E+000	T	Initial &E (V)
VLIMIT1	POTEN	8.00000E-001	F	Scan Limit &1 (V)
VLIMIT2	POTEN	-5.00000E-001	F	Scan Limit &2 (V)
VFINAL	POTEN	0.00000E+000	T	Final &E (V)
SCANRATE	QUANT	4.99999E+001	&Scan Rate (mV/s)
STEPSIZE	QUANT	1.00000E+000	St&ep Size (mV)
CYCLES	IQUANT	5	C&ycles (#)
IMODE	SELECTOR	1	I/E Range &Mode
IRANGE	QUANT	1.50000E+001	&Max Current (mA)
AREA	QUANT	1.00000E+000	Electrode &Area (cm^2)
ELECTRODETYPE	SELECTOR	0	Electrode Type
STRIPPING	TOGGLE	F	Used for Stripping
POLARITY	TOGGLE	F	Signal Polarity
CONDIT	TWOPARAM	F	1.50000E+001	0.00000E+000	Conditionin&g	Time(s)	E(V)
DELAY	TWOPARAM	T	5.00000E+000	0.00000E+000	Init. De&lay	Time(s)	Stab.(mV/s)
EQDELAY	QUANT	3.00000E+000	Equil. &Time (s)
IRCOMP	SELECTOR	0	IRCom&p
PFCOR	QUANT	0.00000E+000	PF Corr. (ohm)
SAMPLINGMODE	SELECTOR	2	Sampling &Mode
OCVCURVE	TABLE	20
	Pt	T	Vf	Vm	Ach	Over
	#	s	V vs. Ref.	V	V	bits
	0	0.25	1.04873E-001	1.04873E-001	8.11002E-005	...........
	1	0.5	1.04914E-001	1.07029E-001	6.51421E-005	...........
	2	0.75	1.05084E-001	1.04722E-001	8.55168E-005	...........
	3	1	1.05362E-001	1.06387E-001	8.27669E-005	...........
	4	1.25	1.05591E-001	1.04959E-001	8.07252E-005	...........
	5	1.5	1.05729E-001	1.08725E-001	7.61420E-005	...........
	6	1.75	1.05928E-001	1.05108E-001	7.98086E-005	...........
	7	2	1.06237E-001	1.07641E-001	7.52670E-005	...........
	8	2.25	1.06440E-001	1.02788E-001	7.81419E-005	...........
	9	2.5	1.06286E-001	1.05778E-001	7.80169E-005	...........
	10	2.75	1.05883E-001	1.09306E-001	7.79753E-005	...........
	11	3	1.05766E-001	1.06314E-001	8.20585E-005	...........
	12	3.25	1.06162E-001	1.05957E-001	8.13502E-005	...........
	13	3.5	1.06582E-001	1.05025E-001	7.77253E-005	...........
	14	3.75	1.06604E-001	1.08503E-001	7.81419E-005	...........
	15	4	1.06410E-001	1.03588E-001	8.08086E-005	...........
	16	4.25	1.06244E-001	1.07187E-001	7.40587E-005	...........
	17	4.5	1.06098E-001	1.05701E-001	8.98501E-005	...........
	18	4.75	1.06015E-001	1.07089E-001	8.33919E-005	...........
	19	5	1.06075E-001	1.05680E-001	8.54335E-005	...........
EOC	QUANT	0.1060751	Open Circuit (V)
PSTATMODEL	IQUANT	4	Pstat Model
PSTATSECTION	LABEL	REF600-16093	Pstat Section
PSTATSERIALNO	LABEL	16093	Pstat Serial Number
CTRLMODE	IQUANT	1	Control Mode
IESTAB	IQUANT	2	I/E Stability
CASPEED	IQUANT	2	Control Amp Speed
CONVENTION	IQUANT	1	Current Convention
ICHRANGE	IQUANT	2	Ich Range
ICHRANGEMODE	TOGGLE	F	Ich Auto Range
ICHOFFSETENABLE	TOGGLE	F	Ich Offset Enable
ICHOFFSET	QUANT	0	Ich Offset (V)
ICHFILTER	IQUANT	2	Ich Filter
VCHRANGE	IQUANT	2	Vch Range
VCHRANGEMODE	TOGGLE	F	Vch Auto Range
VCHOFFSETENABLE	TOGGLE	F	Vch Offset Enable
VCHOFFSET	QUANT	0	Vch Offset (V)
VCHFILTER	IQUANT	2	Vch Filter
ACHRANGE	IQUANT	2	Ach Range
ACHOFFSETENABLE	TOGGLE	F	Ach Offset Enable
ACHOFFSET	QUANT	0	Ach Offset (V)
ACHFILTER	IQUANT	1	Ach Filter
IERANGELOWERLIMIT	IQUANT	1	I/E Range Lower Limit
IERANGEMODE	TOGGLE	F	I/E AutoRange
IERANGE	IQUANT	10	I/E Range
POSFEEDENABLE	TOGGLE	F	Positive Feedback IR Comp
POSFEEDRESISTANCE	QUANT	0	Positive Feedback Resistance (ohm)
ACHSELECT	IQUANT	0	Ach Select
CABLEID	IQUANT	14	Cable ID
DCCALDATE	LABEL	11/5/2019	DC Calibration Date
ACCALDATE	LABEL		AC Calibration Date
THERMOSELECT	IQUANT	1	Thermo Select
FRAMEWORKVERSION	QUANT	6.12	Framework Version
INSTRUMENTVERSION	LABEL	3.11	Instrument Version
CURVE1	TABLE
	Pt	T	Vf	Im	Vu	Sig	Ach	IERange	Over
	#	s	V vs. Ref.	A	V	V	V	#	bits
	0	0.02	1.05752E-001	-1.21849E-006	0.00000E+000	1.06100E-001	7.53879E-005	10	...........
	19	0.4	1.24646E-001	-2.13428E-006	0.00000E+000	1.25100E-001	7.98082E-005	10	...........
	38	0.78	1.43419E-001	-2.57634E-006	0.00000E+000	1.44050E-001	8.05588E-005	10	...........
	57	1.16	1.62557E-001	-2.76817E-006	0.00000E+000	1.63050E-001	8.18098E-005	10	...........
	76	1.54	1.81579E-001	-2.55298E-006	0.00000E+000	1.82050E-001	7.26356E-005	10	...........
	95	1.92	2.00737E-001	2.17947E-006	0.00000E+000	2.01050E-001	6.73813E-005	10	...........
	114	2.3	2.19574E-001	7.81588E-007	0.00000E+000	2.20050E-001	8.26438E-005	10	...........
	133	2.68	2.38538E-001	-4.17789E-007	0.00000E+000	2.39050E-001	7.68891E-005	10	...........
	152	3.06	2.57476E-001	-8.16470E-007	0.00000E+000	2.58050E-001	7.54713E-005	10	...........
	171	3.44	2.76476E-001	2.34445E-007	0.00000E+000	2.77050E-001	8.41450E-005	10	...........
	190	3.82	2.95352E-001	4.76162E-008	0.00000E+000	2.96050E-001	8.30608E-005	10	...........
	209	4.2	3.14581E-001	3.72415E-006	0.00000E+000	3.15050E-001	7.15514E-005	10	...........
	228	4.58	3.33425E-001	-2.62654E-007	0.00000E+000	3.34050E-001	9.25686E-005	10	...........
	247	4.96	3.52406E-001	9.90103E-007	0.00000E+000	3.53050E-001	8.79815E-005	10	...........
	266	5.34	3.71463E-001	1.32873E-006	0.00000E+000	3.72050E-001	8.47289E-005	10	...........
	285	5.72	3.90367E-001	1.13523E-006	0.00000E+000	3.91050E-001	8.03920E-005	10	...........
	304	6.1	4.09363E-001	1.27202E-006	0.00000E+000	4.10050E-001	8.83985E-005	10	...........
	323	6.48	4.28490E-001	6.26303E-006	0.00000E+000	4.29050E-001	6.42121E-005	10	...........
	342	6.86	4.47324E-001	2.76999E-006	0.00000E+000	4.48050E-001	8.28106E-005	10	...........
	361	7.24	4.66305E-001	4.66163E-006	0.00000E+000	4.67050E-001	7.75563E-005	10	...........
	380	7.62	4.85315E-001	3.27876E-006	0.00000E+000	4.86050E-001	8.72309E-005	10	...........
	399	8	5.04307E-001	3.38886E-006	0.00000E+000	5.05050E-001	6.97166E-005	10	...........
	418	8.38	5.23225E-001	3.27543E-006	0.00000E+000	5.24050E-001	7.37198E-005	10	...........
	437	8.76	5.42228E-001	5.42063E-006	0.00000E+000	5.43050E-001	7.56381E-005	10	...........
	456	9.14	5.61211E-001	3.65242E-006	0.00000E+000	5.62050E-001	8.10592E-005	10	...........
	475	9.52	5.80173E-001	4.43644E-006	0.00000E+000	5.81050E-001	8.16430E-005	10	...........
	494	9.9	5.99355E-001	8.71516E-006	0.00000E+000	6.00050E-001	6.36283E-005	10	...........
	513	10.28	6.18184E-001	6.73010E-006	0.00000E+000	6.19050E-001	8.50625E-005	10	...........
	532	10.66	6.37192E-001	7.28892E-006	0.00000E+000	6.38050E-001	8.32276E-005	10	...........
	551	11.04	6.56336E-001	8.14300E-006	0.00000E+000	6.57050E-001	7.43037E-005	10	...........
	570	11.42	6.75122E-001	8.35318E-006	0.00000E+000	6.76050E-001	7.90576E-005	10	...........
	589	11.8	6.94113E-001	9.64931E-006	0.00000E+000	6.95050E-001	8.60633E-005	10	...........
	608	12.18	7.13028E-001	9.00541E-006	0.00000E+000	7.14050E-001	7.83903E-005	10	...........
	627	12.56	7.32064E-001	9.90119E-006	0.00000E+000	7.33050E-001	7.58049E-005	10	...........
	646	12.94	7.51058E-001	9.76775E-006	0.00000E+000	7.52050E-001	7.83069E-005	10	...........
	665	13.32	7.70069E-001	1.12457E-005	0.00000E+000	7.71050E-001	7.87239E-005	10	...........
	684	13.7	7.89158E-001	1.12324E-005	0.00000E+000	7.90050E-001	8.15596E-005	10	...........
	703	14.08	7.90059E-001	1.09438E-005	0.00000E+000	7.91050E-001	7.51377E-005	10	...........
	722	14.46	7.71072E-001	1.03549E-005	0.00000E+000	7.72050E-001	7.86405E-005	10	...........
	741	14.84	7.52132E-001	1.01831E-005	0.00000E+000	7.53050E-001	7.55547E-005	10	...........
	760	15.22	7.33185E-001	8.80357E-006	0.00000E+000	7.34050E-001	7.73895E-005	10	...........
	779	15.6	7.14129E-001	8.20805E-006	0.00000E+000	7.15050E-001	8.65637E-005	10	...........
	798	15.98	6.95163E-001	9.20225E-006	0.00000E+000	6.96050E-001	7.43871E-005	10	...........
	817	16.36	6.76159E-001	7.64923E-006	0.00000E+000	6.77050E-001	7.98082E-005	10	...........
	836	16.74	6.57054E-001	6.61667E-006	0.00000E+000	6.58050E-001	8.32276E-005	10	...........
	855	17.12	6.38186E-001	8.10630E-006	0.00000E+000	6.39050E-001	8.59799E-005	10	...........
	874	17.5	6.19204E-001	6.66004E-006	0.00000E+000	6.20050E-001	7.74729E-005	10	...........
	893	17.88	6.00433E-001	1.00046E-005	0.00000E+000	6.01050E-001	6.09594E-005	10	...........
	912	18.26	5.81225E-001	4.27797E-006	0.00000E+000	5.82050E-001	8.00584E-005	10	...........
	931	18.64	5.62251E-001	4.95689E-006	0.00000E+000	5.63050E-001	7.82235E-005	10	...........
	950	19.02	5.43261E-001	4.41976E-006	0.00000E+000	5.44050E-001	6.98834E-005	10	...........
	969	19.4	5.24238E-001	2.79501E-006	0.00000E+000	5.25050E-001	7.87239E-005	10	...........
	988	19.78	5.05276E-001	2.52310E-006	0.00000E+000	5.06050E-001	7.68057E-005	10	...........
	1007	20.16	4.86299E-001	2.48641E-006	0.00000E+000	4.87050E-001	7.91409E-005	10	...........
	1026	20.54	4.67382E-001	1.44550E-006	0.00000E+000	4.68050E-001	8.13928E-005	10	...........
	1045	20.92	4.48362E-001	1.05516E-006	0.00000E+000	4.49050E-001	8.23102E-005	10	...........
	1064	21.3	4.29349E-001	1.21030E-006	0.00000E+000	4.30050E-001	8.52293E-005	10	...........
	1083	21.68	4.10335E-001	1.87738E-007	0.00000E+000	4.11050E-001	8.42284E-005	10	...........
	1102	22.06	3.91559E-001	4.75838E-006	0.00000E+000	3.92050E-001	6.39619E-005	10	...........
	1121	22.44	3.72609E-001	3.07358E-006	0.00000E+000	3.73050E-001	7.54713E-005	10	...........
	1140	22.82	3.53711E-001	3.29044E-006	0.00000E+000	3.54050E-001	6.77983E-005	10	...........
	1159	23.2	3.34535E-001	-6.26304E-007	0.00000E+000	3.35050E-001	8.30608E-005	10	...........
	1178	23.58	3.15521E-001	-2.02085E-006	0.00000E+000	3.16050E-001	8.10592E-005	10	...........
	1197	23.96	2.96454E-001	-3.12181E-006	0.00000E+000	2.97050E-001	8.13094E-005	10	...........
	1216	24.34	2.77550E-001	-3.64393E-006	0.00000E+000	2.78050E-001	7.44705E-005	10	...........
	1235	24.72	2.58503E-001	-3.48212E-006	0.00000E+000	2.59050E-001	7.76397E-005	10	...........
	1254	25.1	2.39659E-001	3.74567E-007	0.00000E+000	2.40050E-001	6.60469E-005	10	...........
	1273	25.48	2.20479E-001	-3.13515E-006	0.00000E+000	2.21050E-001	8.78981E-005	10	...........
	1292	25.86	2.01599E-001	-3.28028E-006	0.00000E+000	2.02050E-001	6.93830E-005	10	...........
	1311	26.24	1.82697E-001	-4.35955E-006	0.00000E+000	1.83050E-001	8.22268E-005	10	...........
	1330	26.62	1.63600E-001	-5.08685E-006	0.00000E+000	1.64050E-001	8.31442E-005	10	...........
	1349	27	1.44646E-001	-3.32198E-006	0.00000E+000	1.45050E-001	8.43118E-005	10	...........
	1368	27.38	1.25693E-001	-3.60056E-006	0.00000E+000	1.26100E-001	7.96414E-005	10	...........
	1387	27.76	1.06610E-001	-6.04769E-006	0.00000E+000	1.07100E-001	8.48957E-005	10	...........
	1406	28.14	8.78378E-002	-2.66308E-006	0.00000E+000	8.81000E-002	6.31278E-005	10	...........
	1425	28.52	6.87568E-002	-5.89089E-006	0.00000E+000	6.91000E-002	7.49709E-005	10	...........
	1444	28.9	4.98503E-002	-6.34795E-006	0.00000E+000	5.01000E-002	7.95580E-005	10	...........
	1463	29.28	3.07998E-002	-6.64488E-006	0.00000E+000	3.11000E-002	7.98082E-005	10	...........
	1482	29.66	1.18970E-002	-3.03173E-006	0.00000E+000	1.21000E-002	5.43707E-005	10	...........
	1501	30.04	-7.14620E-003	-6.42302E-006	0.00000E+000	-6.89998E-003	7.03004E-005	10	...........
	1520	30.42	-2.61832E-002	-6.18114E-006	0.00000E+000	-2.59000E-002	7.23020E-005	10	...........
	1539	30.8	-4.52008E-002	-7.30378E-006	0.00000E+000	-4.49000E-002	7.82235E-005	10	...........
	1558	31.18	-6.41961E-002	-5.69905E-006	0.00000E+000	-6.39000E-002	8.24770E-005	10	...........
	1577	31.56	-8.30719E-002	-5.76911E-006	0.00000E+000	-8.29000E-002	7.32194E-005	10	...........
	1596	31.94	-1.02028E-001	-6.25454E-006	0.00000E+000	-1.01900E-001	7.83903E-005	10	...........
	1615	32.32	-1.21091E-001	-6.65489E-006	0.00000E+000	-1.20900E-001	8.44786E-005	10	...........
	1634	32.7	-1.40131E-001	-8.06278E-006	0.00000E+000	-1.39900E-001	8.26438E-005	10	...........
	1653	33.08	-1.59077E-001	-8.96857E-006	0.00000E+000	-1.58900E-001	8.15596E-005	10	...........
	1672	33.46	-1.78155E-001	-8.78507E-006	0.00000E+000	-1.77900E-001	7.77231E-005	10	...........
	1691	33.84	-1.96867E-001	-6.28289E-006	0.00000E+000	-1.96900E-001	6.29610E-005	10	...........
	1710	34.22	-2.16019E-001	-8.85680E-006	0.00000E+000	-2.15900E-001	6.75481E-005	10	...........
	1729	34.6	-2.34820E-001	-9.66751E-006	0.00000E+000	-2.34900E-001	7.89741E-005	10	...........
	1748	34.98	-2.53956E-001	-1.04065E-005	0.00000E+000	-2.53900E-001	8.48957E-005	10	...........
	1767	35.36	-2.72970E-001	-9.99946E-006	0.00000E+000	-2.72900E-001	7.71393E-005	10	...........
	1786	35.74	-2.91938E-001	-8.94188E-006	0.00000E+000	-2.91900E-001	7.47207E-005	10	...........
	1805	36.12	-3.10982E-001	-1.02330E-005	0.00000E+000	-3.10900E-001	8.28106E-005	10	...........
	1824	36.5	-3.29944E-001	-1.07785E-005	0.00000E+000	-3.29900E-001	8.28106E-005	10	...........
	1843	36.88	-3.48914E-001	-1.11488E-005	0.00000E+000	-3.48900E-001	7.68057E-005	10	...........
	1862	37.26	-3.67656E-001	-7.65909E-006	0.00000E+000	-3.67900E-001	5.86242E-005	10	...........
	1881	37.64	-3.86795E-001	-1.09536E-005	0.00000E+000	-3.86900E-001	8.22268E-005	10	...........
	1900	38.02	-4.05842E-001	-9.06031E-006	0.00000E+000	-4.05900E-001	8.84819E-005	10	...........
	1919	38.4	-4.24665E-001	-8.28130E-006	0.00000E+000	-4.24900E-001	6.17934E-005	10	...........
	1938	38.78	-4.43799E-001	-1.15491E-005	0.00000E+000	-4.43900E-001	8.15596E-005	10	...........
	1957	39.16	-4.62815E-001	-1.12189E-005	0.00000E+000	-4.62900E-001	7.44705E-005	10	...........
	1976	39.54	-4.81802E-001	-1.10804E-005	0.00000E+000	-4.81900E-001	8.58131E-005	10	...........
	1994	39.9	-4.99820E-001	-1.13807E-005	0.00000E+000	-4.99900E-001	8.45620E-005	10	...........
CURVE2	TABLE
	Pt	T	Vf	Im	Vu	Sig	Ach	IERange	Over
	#	s	V vs. Ref.	A	V	V	V	#	bits
	1995	39.92	-4.98887E-001	-1.16509E-005	0.00000E+000	-4.99000E-001	8.43953E-005	10	...........
	2020	40.42	-4.73971E-001	-8.88683E-006	0.00000E+000	-4.74000E-001	8.12260E-005	10	...........
	2045	40.92	-4.48968E-001	-7.71915E-006	0.00000E+000	-4.49000E-001	7.78065E-005	10	...........
	2070	41.42	-4.23981E-001	-7.86260E-006	0.00000E+000	-4.24000E-001	7.34697E-005	10	...........
	2095	41.92	-3.99013E-001	-8.19956E-006	0.00000E+000	-3.99000E-001	7.29692E-005	10	...........
	2120	42.42	-3.74015E-001	-7.63074E-006	0.00000E+000	-3.74000E-001	7.88907E-005	10	...........
	2145	42.92	-3.49056E-001	-6.85172E-006	0.00000E+000	-3.49000E-001	8.16430E-005	10	...........
	2170	43.42	-3.24061E-001	-5.75243E-006	0.00000E+000	-3.24000E-001	7.59717E-005	10	...........
	2195	43.92	-2.99065E-001	-4.59309E-006	0.00000E+000	-2.99000E-001	8.31442E-005	10	...........
	2220	44.42	-2.74136E-001	-4.36289E-006	0.00000E+000	-2.74000E-001	7.74729E-005	10	...........
	2245	44.92	-2.49099E-001	-5.40880E-006	0.00000E+000	-2.49000E-001	8.27272E-005	10	...........
	2270	45.42	-2.24131E-001	-4.42461E-006	0.00000E+000	-2.24000E-001	7.93912E-005	10	...........
	2295	45.92	-1.99090E-001	-2.54798E-006	0.00000E+000	-1.99000E-001	6.89660E-005	10	...........
	2320	46.42	-1.73979E-001	-8.41491E-007	0.00000E+000	-1.74000E-001	6.00420E-005	10	...........
	2345	46.92	-1.49229E-001	-4.47132E-006	0.00000E+000	-1.49000E-001	7.93078E-005	10	...........
	2370	47.42	-1.24206E-001	-4.05095E-006	0.00000E+000	-1.24000E-001	8.53127E-005	10	...........
	2395	47.92	-9.92619E-002	-3.20021E-006	0.00000E+000	-9.90000E-002	7.73061E-005	10	...........
	2420	48.42	-7.41937E-002	-8.93203E-007	0.00000E+000	-7.40000E-002	7.28024E-005	10	...........
	2445	48.92	-4.90718E-002	4.77991E-007	0.00000E+000	-4.90000E-002	5.30363E-005	10	...........
	2470	49.42	-2.42956E-002	-2.63472E-006	0.00000E+000	-2.40000E-002	8.08090E-005	10	...........
	2495	49.92	6.65103E-004	-1.92410E-006	0.00000E+000	1.00002E-003	8.31442E-005	10	...........
	2520	50.42	2.57823E-002	-1.19180E-006	0.00000E+000	2.60000E-002	6.76315E-005	10	...........
	2545	50.92	5.05844E-002	-9.43247E-007	0.00000E+000	5.10000E-002	6.92996E-005	10	...........
	2570	51.42	7.56182E-002	-1.07169E-006	0.00000E+000	7.60000E-002	7.63053E-005	10	...........
	2595	51.92	1.00717E-001	2.57799E-007	0.00000E+000	1.01000E-001	6.87158E-005	10	...........
	2620	52.42	1.25576E-001	-1.92410E-006	0.00000E+000	1.26000E-001	7.05506E-005	10	...........
	2645	52.92	1.50685E-001	-1.37863E-006	0.00000E+000	1.51000E-001	7.53879E-005	10	...........
	2670	53.42	1.75420E-001	-7.24723E-007	0.00000E+000	1.76000E-001	7.62219E-005	10	...........
	2695	53.92	2.00495E-001	-6.47989E-007	0.00000E+000	2.01000E-001	7.20518E-005	10	...........
	2720	54.42	2.25467E-001	1.47703E-007	0.00000E+000	2.26000E-001	7.91409E-005	10	...........
	2745	54.92	2.50409E-001	1.41031E-007	0.00000E+000	2.51000E-001	7.24688E-005	10	...........
	2770	55.42	2.75554E-001	1.95094E-006	0.00000E+000	2.76000E-001	7.58049E-005	10	...........
	2795	55.92	3.00319E-001	1.37711E-006	0.00000E+000	3.01000E-001	7.98916E-005	10	...........
	2820	56.42	3.25422E-001	2.52644E-006	0.00000E+000	3.26000E-001	7.44705E-005	10	...........
	2845	56.92	3.50321E-001	1.74576E-006	0.00000E+000	3.51000E-001	7.58883E-005	10	...........
	2870	57.42	3.75341E-001	2.07772E-006	0.00000E+000	3.76000E-001	7.57215E-005	10	...........
	2895	57.92	4.00374E-001	2.56481E-006	0.00000E+000	4.01000E-001	8.26438E-005	10	...........
	2920	58.42	4.25264E-001	2.81336E-006	0.00000E+000	4.26000E-001	8.02252E-005	10	...........
	2945	58.92	4.50220E-001	2.93680E-006	0.00000E+000	4.51000E-001	8.78147E-005	10	...........
	2970	59.42	4.75554E-001	3.83591E-006	0.00000E+000	4.76000E-001	7.73895E-005	10	...........
	2995	59.92	5.00202E-001	4.96356E-006	0.00000E+000	5.01000E-001	6.91328E-005	10	...........
	3020	60.42	5.25195E-001	4.10615E-006	0.00000E+000	5.26000E-001	7.98916E-005	10	...........
[...]
	12467	249.36	-4.26915E-001	-1.10120E-005	0.00000E+000	-4.27000E-001	7.02170E-005	10	...........
	12473	249.48	-4.21036E-001	-1.03564E-005	0.00000E+000	-4.21000E-001	7.68057E-005	10	...........
	12479	249.6	-4.15015E-001	-9.49903E-006	0.00000E+000	-4.15000E-001	7.52211E-005	10	...........
	12485	249.72	-4.08811E-001	-6.11775E-006	0.00000E+000	-4.09000E-001	5.69561E-005	10	...........
	12491	249.84	-4.02939E-001	-9.60746E-006	0.00000E+000	-4.03000E-001	7.14680E-005	10	...........
	12497	249.96	-3.97031E-001	-9.75425E-006	0.00000E+000	-3.97000E-001	8.04754E-005	10	...........
	12503	250.08	-3.91011E-001	-8.00940E-006	0.00000E+000	-3.91000E-001	7.82235E-005	10	...........
	12509	250.2	-3.84945E-001	-8.83845E-006	0.00000E+000	-3.85000E-001	7.44705E-005	10	...........
	12515	250.32	-3.78942E-001	-8.23960E-006	0.00000E+000	-3.79000E-001	7.15514E-005	10	...........
	12521	250.44	-3.73056E-001	-8.95189E-006	0.00000E+000	-3.73000E-001	7.65555E-005	10	...........
	12527	250.56	-3.67018E-001	-7.64575E-006	0.00000E+000	-3.67000E-001	7.42203E-005	10	...........
	12533	250.68	-3.60787E-001	-4.38791E-006	0.00000E+000	-3.61000E-001	5.71229E-005	10	...........
	12539	250.8	-3.54915E-001	-8.16620E-006	0.00000E+000	-3.55000E-001	7.29692E-005	10	...........
	12545	250.92	-3.49052E-001	-6.44971E-006	0.00000E+000	-3.49000E-001	6.92162E-005	10	...........
	12551	251.04	-3.43028E-001	-7.77419E-006	0.00000E+000	-3.43000E-001	7.74729E-005	10	...........
	12557	251.16	-3.36823E-001	-4.22110E-006	0.00000E+000	-3.37000E-001	5.47877E-005	10	...........
	12563	251.28	-3.30905E-001	-8.18288E-006	0.00000E+000	-3.31000E-001	6.52129E-005	10	...........
	12569	251.4	-3.25061E-001	-7.28210E-006	0.00000E+000	-3.25000E-001	8.01418E-005	10	...........
	12575	251.52	-3.19081E-001	-6.55313E-006	0.00000E+000	-3.19000E-001	6.91328E-005	10	...........
	12581	251.64	-3.13025E-001	-7.59737E-006	0.00000E+000	-3.13000E-001	7.53879E-005	10	...........
	12587	251.76	-3.06943E-001	-6.98351E-006	0.00000E+000	-3.07000E-001	7.15514E-005	10	...........
	12593	251.88	-3.01094E-001	-6.76498E-006	0.00000E+000	-3.01000E-001	7.56381E-005	10	...........
	12599	252	-2.94924E-001	-3.32699E-006	0.00000E+000	-2.95000E-001	6.02088E-005	10	...........
	12605	252.12	-2.89033E-001	-6.88008E-006	0.00000E+000	-2.89000E-001	7.60551E-005	10	...........
	12611	252.24	-2.82998E-001	-7.02521E-006	0.00000E+000	-2.83000E-001	7.10510E-005	10	...........
	12617	252.36	-2.77098E-001	-6.94347E-006	0.00000E+000	-2.77000E-001	8.33110E-005	10	...........
	12623	252.48	-2.71106E-001	-6.72995E-006	0.00000E+000	-2.71000E-001	7.73895E-005	10	...........
	12629	252.6	-2.64973E-001	-4.44963E-006	0.00000E+000	-2.65000E-001	7.36364E-005	10	...........
	12635	252.72	-2.59024E-001	-6.85172E-006	0.00000E+000	-2.59000E-001	6.64639E-005	10	...........
	12641	252.84	-2.53132E-001	-6.43803E-006	0.00000E+000	-2.53000E-001	7.47207E-005	10	...........
	12647	252.96	-2.46934E-001	-2.02085E-006	0.00000E+000	-2.47000E-001	5.57051E-005	10	...........
	12653	253.08	-2.41108E-001	-6.55647E-006	0.00000E+000	-2.41000E-001	7.63887E-005	10	...........
	12659	253.2	-2.34961E-001	-6.00432E-006	0.00000E+000	-2.35000E-001	7.58049E-005	10	...........
	12665	253.32	-2.29149E-001	-4.26781E-006	0.00000E+000	-2.29000E-001	7.93078E-005	10	...........
	12671	253.44	-2.23114E-001	-4.66816E-006	0.00000E+000	-2.23000E-001	7.42203E-005	10	...........
	12677	253.56	-2.17008E-001	-2.33779E-006	0.00000E+000	-2.17000E-001	5.94582E-005	10	...........
	12683	253.68	-2.11063E-001	-5.86086E-006	0.00000E+000	-2.11000E-001	6.52963E-005	10	...........
	12689	253.8	-2.05134E-001	-3.92584E-006	0.00000E+000	-2.05000E-001	7.23020E-005	10	...........
	12695	253.92	-1.99138E-001	-4.80828E-006	0.00000E+000	-1.99000E-001	7.46373E-005	10	...........
	12701	254.04	-1.93185E-001	-5.38378E-006	0.00000E+000	-1.93000E-001	8.19766E-005	10	...........
	12707	254.16	-1.87151E-001	-5.28870E-006	0.00000E+000	-1.87000E-001	7.46373E-005	10	...........
	12713	254.28	-1.81161E-001	-5.49721E-006	0.00000E+000	-1.81000E-001	7.53045E-005	10	...........
	12719	254.4	-1.75150E-001	-4.83664E-006	0.00000E+000	-1.75000E-001	6.76315E-005	10	...........
	12725	254.52	-1.69183E-001	-4.77325E-006	0.00000E+000	-1.69000E-001	7.61385E-005	10	...........
	12731	254.64	-1.63196E-001	-5.19695E-006	0.00000E+000	-1.63000E-001	7.09676E-005	10	...........
	12737	254.76	-1.57225E-001	-4.05095E-006	0.00000E+000	-1.57000E-001	7.70559E-005	10	...........
	12743	254.88	-1.51160E-001	-4.11601E-006	0.00000E+000	-1.51000E-001	7.79733E-005	10	...........
	12749	255	-1.45142E-001	-3.61057E-006	0.00000E+000	-1.45000E-001	7.63887E-005	10	...........
	12755	255.12	-1.39198E-001	-4.83997E-006	0.00000E+000	-1.39000E-001	7.15514E-005	10	...........
	12761	255.24	-1.33244E-001	-4.69818E-006	0.00000E+000	-1.33000E-001	7.44705E-005	10	...........
	12767	255.36	-1.27205E-001	-2.56799E-006	0.00000E+000	-1.27000E-001	7.23854E-005	10	...........
	12773	255.48	-1.21178E-001	-3.63893E-006	0.00000E+000	-1.21000E-001	7.69725E-005	10	...........
	12779	255.6	-1.15253E-001	-4.39792E-006	0.00000E+000	-1.15000E-001	7.11344E-005	10	...........
	12785	255.72	-1.09097E-001	-7.08042E-007	0.00000E+000	-1.09000E-001	6.11262E-005	10	...........
	12791	255.84	-1.03200E-001	-4.64147E-006	0.00000E+000	-1.03000E-001	7.04672E-005	10	...........
	12797	255.96	-9.72354E-002	-3.52049E-006	0.00000E+000	-9.70000E-002	7.48041E-005	10	...........
	12803	256.08	-9.12975E-002	-4.56140E-006	0.00000E+000	-9.10000E-002	6.98000E-005	10	...........
	12809	256.2	-8.53409E-002	-3.30697E-006	0.00000E+000	-8.50000E-002	8.48957E-005	10	...........
	12815	256.32	-7.92090E-002	-3.78239E-006	0.00000E+000	-7.90000E-002	7.74729E-005	10	...........
	12821	256.44	-7.32232E-002	-3.90249E-006	0.00000E+000	-7.30000E-002	7.69725E-005	10	...........
	12827	256.56	-6.73010E-002	-3.98256E-006	0.00000E+000	-6.70000E-002	7.33862E-005	10	...........
	12833	256.68	-6.13927E-002	-3.62225E-006	0.00000E+000	-6.10000E-002	7.64721E-005	10	...........
	12839	256.8	-5.52295E-002	-2.49293E-006	0.00000E+000	-5.50000E-002	7.41369E-005	10	...........
	12845	256.92	-4.92222E-002	-3.86579E-006	0.00000E+000	-4.90000E-002	7.87239E-005	10	...........
	12851	257.04	-4.32919E-002	-3.15184E-006	0.00000E+000	-4.30000E-002	7.44705E-005	10	...........
	12857	257.16	-3.74057E-002	-2.37282E-006	0.00000E+000	-3.70000E-002	7.48041E-005	10	...........
	12863	257.28	-3.11396E-002	5.76249E-008	0.00000E+000	-3.10000E-002	6.25440E-005	10	...........
	12869	257.4	-2.52298E-002	-3.35535E-006	0.00000E+000	-2.50000E-002	7.51377E-005	10	...........
	12875	257.52	-1.93077E-002	-8.58173E-007	0.00000E+000	-1.90000E-002	7.35530E-005	10	...........
	12881	257.64	-1.33275E-002	-3.31865E-006	0.00000E+000	-1.30000E-002	7.63887E-005	10	...........
	12887	257.76	-7.08982E-003	1.20696E-006	0.00000E+000	-6.99998E-003	6.18768E-005	10	...........
	12893	257.88	-1.25572E-003	-3.52883E-006	0.00000E+000	-9.99987E-004	7.91409E-005	10	...........
	12899	258	4.60608E-003	-3.15517E-006	0.00000E+000	5.00001E-003	8.43953E-005	10	...........
	12905	258.12	1.05951E-002	-3.04508E-006	0.00000E+000	1.10000E-002	7.74729E-005	10	...........
	12911	258.24	1.68666E-002	1.09019E-006	0.00000E+000	1.70000E-002	5.07844E-005	10	...........
	12917	258.36	2.27708E-002	-3.17019E-006	0.00000E+000	2.30000E-002	7.55547E-005	10	...........
	12923	258.48	2.86027E-002	-1.12007E-006	0.00000E+000	2.90000E-002	8.09758E-005	10	...........
	12929	258.6	3.45855E-002	-2.72980E-006	0.00000E+000	3.50000E-002	7.98916E-005	10	...........
	12935	258.72	4.06798E-002	-2.11093E-006	0.00000E+000	4.10000E-002	7.23854E-005	10	...........
	12941	258.84	4.68582E-002	4.06262E-007	0.00000E+000	4.70000E-002	5.93748E-005	10	...........
	12947	258.96	5.26032E-002	-3.50214E-006	0.00000E+000	5.30000E-002	7.34697E-005	10	...........
	12953	259.08	5.85606E-002	-3.10847E-006	0.00000E+000	5.90000E-002	8.04754E-005	10	...........
	12959	259.2	6.45786E-002	-1.90408E-006	0.00000E+000	6.50000E-002	7.46373E-005	10	...........
	12965	259.32	7.07615E-002	-3.01005E-006	0.00000E+000	7.10000E-002	8.07256E-005	10	...........
	12971	259.44	7.66001E-002	-1.51041E-006	0.00000E+000	7.70000E-002	7.73061E-005	10	...........
	12977	259.56	8.25717E-002	-2.96000E-006	0.00000E+000	8.30000E-002	7.69725E-005	10	...........
	12983	259.68	8.86812E-002	-3.67745E-007	0.00000E+000	8.90000E-002	6.99668E-005	10	...........
	12989	259.8	9.46096E-002	-3.00171E-006	0.00000E+000	9.50000E-002	7.63887E-005	10	...........
	12995	259.92	1.00587E-001	-8.36487E-007	0.00000E+000	1.01000E-001	7.58883E-005	10	...........
	13000	260.02	1.05587E-001	-1.20681E-006	0.00000E+000	1.06000E-001	7.06340E-005	10	...........