File: 20191129/matning1/CVTESTKRISTALL4BOX5_4.DTA
EXPLAIN
TAG	CV
TITLE	LABEL	CV	Test &Identifier
DATE	LABEL	11/29/2019	Date
TIME	LABEL	11:19:13	Time
NOTES	NOTES	1	&Notes...

PSTAT	PSTAT	REF600-16093	Potentiostat
VINIT	POTEN	0.00000E+000	T	Initial &E (V)
VLIMIT1	POTEN	8.00000E-001	F	Scan Limit &1 (V)
VLIMIT2	POTEN	-5.00000E-001	F	Scan Limit &2 (V)
VFINAL	POTEN	0.00000E+000	T	Final &E (V)
SCANRATE	QUANT	4.99999E+001	&Scan Rate (mV/s)
STEPSIZE	QUANT	1.00000E+000	St&ep Size (mV)
CYCLES	IQUANT	5	C&ycles (#)
IMODE	SELECTOR	1	I/E Range &Mode
IRANGE	QUANT	1.50000E+001	&Max Current (mA)
AREA	QUANT	1.00000E+000	Electrode &Area (cm^2)
ELECTRODETYPE	SELECTOR	0	Electrode Type
STRIPPING	TOGGLE	F	Used for Stripping
POLARITY	TOGGLE	F	Signal Polarity
CONDIT	TWOPARAM	F	1.50000E+001	0.00000E+000	Conditionin&g	Time(s)	E(V)
DELAY	TWOPARAM	T	5.00000E+000	0.00000E+000	Init. De&lay	Time(s)	Stab.(mV/s)
EQDELAY	QUANT	3.00000E+000	Equil. &Time (s)
IRCOMP	SELECTOR	0	IRCom&p
PFCOR	QUANT	0.00000E+000	PF Corr. (ohm)
SAMPLINGMODE	SELECTOR	2	Sampling &Mode
OCVCURVE	TABLE	20
	Pt	T	Vf	Vm	Ach	Over
	#	s	V vs. Ref.	V	V	bits
	0	0.25	7.55174E-002	7.55174E-002	7.36837E-005	...........
	1	0.5	7.49174E-002	4.41098E-002	7.41420E-005	...........
	2	0.75	7.27926E-002	9.59782E-002	7.58503E-005	...........
	3	1	6.98809E-002	3.66473E-002	8.13919E-005	...........
	4	1.25	6.74300E-002	7.47274E-002	7.66836E-005	...........
	5	1.5	6.60592E-002	1.02990E-001	7.58920E-005	...........
	6	1.75	6.78570E-002	6.73428E-002	7.68920E-005	...........
	7	2	7.37032E-002	1.13645E-001	7.25587E-005	...........
	8	2.25	8.12720E-002	9.38577E-002	7.82253E-005	...........
	9	2.5	8.86484E-002	1.04914E-001	7.27254E-005	...........
	10	2.75	9.47230E-002	9.40681E-002	7.86836E-005	...........
	11	3	9.80862E-002	8.96161E-002	7.57670E-005	...........
	12	3.25	9.86305E-002	1.14661E-001	7.76419E-005	...........
	13	3.5	9.84228E-002	9.58236E-002	7.63920E-005	...........
	14	3.75	9.88994E-002	8.18518E-002	7.32670E-005	...........
	15	4	9.76657E-002	5.24444E-002	7.43087E-005	...........
	16	4.25	9.19820E-002	1.02598E-001	8.11836E-005	...........
	17	4.5	8.37237E-002	2.88063E-002	7.40587E-005	...........
	18	4.75	7.48988E-002	2.57410E-002	7.78919E-005	...........
	19	5	6.42032E-002	6.94136E-002	7.76836E-005	...........
EOC	QUANT	0.0642032	Open Circuit (V)
PSTATMODEL	IQUANT	4	Pstat Model
PSTATSECTION	LABEL	REF600-16093	Pstat Section
PSTATSERIALNO	LABEL	16093	Pstat Serial Number
CTRLMODE	IQUANT	1	Control Mode
IESTAB	IQUANT	2	I/E Stability
CASPEED	IQUANT	2	Control Amp Speed
CONVENTION	IQUANT	1	Current Convention
ICHRANGE	IQUANT	2	Ich Range
ICHRANGEMODE	TOGGLE	F	Ich Auto Range
ICHOFFSETENABLE	TOGGLE	F	Ich Offset Enable
ICHOFFSET	QUANT	0	Ich Offset (V)
ICHFILTER	IQUANT	2	Ich Filter
VCHRANGE	IQUANT	2	Vch Range
VCHRANGEMODE	TOGGLE	F	Vch Auto Range
VCHOFFSETENABLE	TOGGLE	F	Vch Offset Enable
VCHOFFSET	QUANT	0	Vch Offset (V)
VCHFILTER	IQUANT	2	Vch Filter
ACHRANGE	IQUANT	2	Ach Range
ACHOFFSETENABLE	TOGGLE	F	Ach Offset Enable
ACHOFFSET	QUANT	0	Ach Offset (V)
ACHFILTER	IQUANT	1	Ach Filter
IERANGELOWERLIMIT	IQUANT	1	I/E Range Lower Limit
IERANGEMODE	TOGGLE	F	I/E AutoRange
IERANGE	IQUANT	10	I/E Range
POSFEEDENABLE	TOGGLE	F	Positive Feedback IR Comp
POSFEEDRESISTANCE	QUANT	0	Positive Feedback Resistance (ohm)
ACHSELECT	IQUANT	0	Ach Select
CABLEID	IQUANT	14	Cable ID
DCCALDATE	LABEL	11/5/2019	DC Calibration Date
ACCALDATE	LABEL		AC Calibration Date
THERMOSELECT	IQUANT	1	Thermo Select
FRAMEWORKVERSION	QUANT	6.12	Framework Version
INSTRUMENTVERSION	LABEL	3.11	Instrument Version
CURVE1	TABLE
	Pt	T	Vf	Im	Vu	Sig	Ach	IERange	Over
	#	s	V vs. Ref.	A	V	V	V	#	bits
	0	0.02	6.39842E-002	-3.09178E-006	0.00000E+000	6.42000E-002	7.38032E-005	10	...........
	19	0.4	8.29572E-002	-3.20855E-006	0.00000E+000	8.32000E-002	8.43953E-005	10	...........
	38	0.78	1.01887E-001	-3.23357E-006	0.00000E+000	1.02200E-001	7.79733E-005	10	...........
	57	1.16	1.20943E-001	-2.83990E-006	0.00000E+000	1.21200E-001	7.58049E-005	10	...........
	76	1.54	1.39910E-001	-3.42374E-006	0.00000E+000	1.40200E-001	7.28858E-005	10	...........
	95	1.92	1.58940E-001	-2.67475E-006	0.00000E+000	1.59200E-001	7.82235E-005	10	...........
	114	2.3	1.77976E-001	-3.03674E-006	0.00000E+000	1.78200E-001	7.43871E-005	10	...........
	133	2.68	1.96891E-001	-2.94165E-006	0.00000E+000	1.97200E-001	7.42203E-005	10	...........
	152	3.06	2.15796E-001	-3.21022E-006	0.00000E+000	2.16200E-001	8.45620E-005	10	...........
	171	3.44	2.34784E-001	-3.23691E-006	0.00000E+000	2.35200E-001	7.96414E-005	10	...........
	190	3.82	2.53776E-001	-3.06009E-006	0.00000E+000	2.54200E-001	7.43871E-005	10	...........
	209	4.2	2.72833E-001	-3.41540E-006	0.00000E+000	2.73200E-001	7.45539E-005	10	...........
	228	4.58	2.91802E-001	-2.86325E-006	0.00000E+000	2.92200E-001	7.61385E-005	10	...........
	247	4.96	3.10795E-001	-3.61557E-006	0.00000E+000	3.11200E-001	7.20518E-005	10	...........
	266	5.34	3.29942E-001	-2.89328E-006	0.00000E+000	3.30200E-001	7.31360E-005	10	...........
	285	5.72	3.48782E-001	-2.96000E-006	0.00000E+000	3.49200E-001	6.03756E-005	10	...........
	304	6.1	3.67724E-001	-2.15764E-006	0.00000E+000	3.68200E-001	7.57215E-005	10	...........
	323	6.48	3.86624E-001	-3.18019E-006	0.00000E+000	3.87200E-001	6.90494E-005	10	...........
	342	6.86	4.05736E-001	-2.63806E-006	0.00000E+000	4.06200E-001	6.84655E-005	10	...........
	361	7.24	4.24745E-001	-3.09178E-006	0.00000E+000	4.25200E-001	7.09676E-005	10	...........
	380	7.62	4.43672E-001	-3.45377E-006	0.00000E+000	4.44200E-001	7.80567E-005	10	...........
	399	8	4.62762E-001	-3.25693E-006	0.00000E+000	4.63200E-001	7.00502E-005	10	...........
	418	8.38	4.81851E-001	-2.40118E-006	0.00000E+000	4.82200E-001	7.17182E-005	10	...........
	437	8.76	5.00533E-001	-2.76650E-006	0.00000E+000	5.01200E-001	7.54713E-005	10	...........
	456	9.14	5.19554E-001	-2.75816E-006	0.00000E+000	5.20200E-001	7.48875E-005	10	...........
	475	9.52	5.38559E-001	-2.62971E-006	0.00000E+000	5.39200E-001	7.05506E-005	10	...........
	494	9.9	5.57573E-001	-3.31531E-006	0.00000E+000	5.58200E-001	6.32947E-005	10	...........
	513	10.28	5.76534E-001	-3.20688E-006	0.00000E+000	5.77200E-001	7.73061E-005	10	...........
	532	10.66	5.95568E-001	-2.11760E-006	0.00000E+000	5.96200E-001	7.51377E-005	10	...........
	551	11.04	6.14688E-001	-2.58968E-006	0.00000E+000	6.15200E-001	7.41369E-005	10	...........
	570	11.42	6.33516E-001	-2.39785E-006	0.00000E+000	6.34200E-001	7.49709E-005	10	...........
	589	11.8	6.52440E-001	-2.86325E-006	0.00000E+000	6.53200E-001	7.55547E-005	10	...........
	608	12.18	6.71400E-001	-2.54964E-006	0.00000E+000	6.72200E-001	7.30526E-005	10	...........
	627	12.56	6.90487E-001	-2.05255E-006	0.00000E+000	6.91200E-001	7.18016E-005	10	...........
	646	12.94	7.09462E-001	-2.50961E-006	0.00000E+000	7.10200E-001	7.13012E-005	10	...........
	665	13.32	7.28386E-001	-3.17185E-006	0.00000E+000	7.29200E-001	7.55547E-005	10	...........
	684	13.7	7.47483E-001	-2.62971E-006	0.00000E+000	7.48200E-001	6.72979E-005	10	...........
	703	14.08	7.66373E-001	-2.67142E-006	0.00000E+000	7.67200E-001	6.52963E-005	10	...........
	722	14.46	7.85376E-001	-2.47625E-006	0.00000E+000	7.86200E-001	7.23020E-005	10	...........
	741	14.84	7.94395E-001	-2.97502E-006	0.00000E+000	7.95200E-001	7.42203E-005	10	...........
	760	15.22	7.75361E-001	-3.19521E-006	0.00000E+000	7.76200E-001	7.64721E-005	10	...........
	779	15.6	7.56244E-001	-2.64973E-006	0.00000E+000	7.57200E-001	7.61385E-005	10	...........
	798	15.98	7.37457E-001	-2.79152E-006	0.00000E+000	7.38200E-001	7.63887E-005	10	...........
	817	16.36	7.18490E-001	-3.17519E-006	0.00000E+000	7.19200E-001	6.75481E-005	10	...........
	836	16.74	6.99529E-001	-2.47792E-006	0.00000E+000	7.00200E-001	6.29610E-005	10	...........
	855	17.12	6.80489E-001	-2.97335E-006	0.00000E+000	6.81200E-001	7.94746E-005	10	...........
	874	17.5	6.61543E-001	-2.33946E-006	0.00000E+000	6.62200E-001	7.27190E-005	10	...........
	893	17.88	6.42512E-001	-2.53463E-006	0.00000E+000	6.43200E-001	7.47207E-005	10	...........
	912	18.26	6.23452E-001	-3.39538E-006	0.00000E+000	6.24200E-001	7.49709E-005	10	...........
	931	18.64	6.04479E-001	-2.41953E-006	0.00000E+000	6.05200E-001	7.74729E-005	10	...........
	950	19.02	5.85603E-001	-2.74648E-006	0.00000E+000	5.86200E-001	6.81320E-005	10	...........
	969	19.4	5.66720E-001	-2.78151E-006	0.00000E+000	5.67200E-001	8.04754E-005	10	...........
	988	19.78	5.47604E-001	-2.95166E-006	0.00000E+000	5.48200E-001	7.19684E-005	10	...........
	1007	20.16	5.28684E-001	-2.80820E-006	0.00000E+000	5.29200E-001	8.09758E-005	10	...........
	1026	20.54	5.09645E-001	-2.46457E-006	0.00000E+000	5.10200E-001	7.48875E-005	10	...........
	1045	20.92	4.90595E-001	-2.60636E-006	0.00000E+000	4.91200E-001	7.47207E-005	10	...........
	1064	21.3	4.71642E-001	-2.81821E-006	0.00000E+000	4.72200E-001	8.27272E-005	10	...........
	1083	21.68	4.52698E-001	-2.72313E-006	0.00000E+000	4.53200E-001	7.61385E-005	10	...........
	1102	22.06	4.33842E-001	-2.84490E-006	0.00000E+000	4.34200E-001	7.21352E-005	10	...........
	1121	22.44	4.14761E-001	-3.23024E-006	0.00000E+000	4.15200E-001	6.93830E-005	10	...........
	1140	22.82	3.95723E-001	-3.34200E-006	0.00000E+000	3.96200E-001	8.35612E-005	10	...........
	1159	23.2	3.76796E-001	-3.00004E-006	0.00000E+000	3.77200E-001	7.13012E-005	10	...........
	1178	23.58	3.57771E-001	-3.42207E-006	0.00000E+000	3.58200E-001	7.55547E-005	10	...........
	1197	23.96	3.38696E-001	-3.26360E-006	0.00000E+000	3.39200E-001	8.01418E-005	10	...........
	1216	24.34	3.19750E-001	-3.08344E-006	0.00000E+000	3.20200E-001	8.03920E-005	10	...........
	1235	24.72	3.00885E-001	-2.60136E-006	0.00000E+000	3.01200E-001	6.98834E-005	10	...........
	1254	25.1	2.81978E-001	-2.73647E-006	0.00000E+000	2.82200E-001	7.19684E-005	10	...........
	1273	25.48	2.62850E-001	-2.88827E-006	0.00000E+000	2.63200E-001	7.53045E-005	10	...........
	1292	25.86	2.43839E-001	-3.14350E-006	0.00000E+000	2.44200E-001	7.44705E-005	10	...........
	1311	26.24	2.24871E-001	-2.70144E-006	0.00000E+000	2.25200E-001	7.33862E-005	10	...........
	1330	26.62	2.05800E-001	-2.81988E-006	0.00000E+000	2.06200E-001	7.16348E-005	10	...........
	1349	27	1.86905E-001	-2.77151E-006	0.00000E+000	1.87200E-001	8.05588E-005	10	...........
	1368	27.38	1.68034E-001	-3.06343E-006	0.00000E+000	1.68200E-001	6.02088E-005	10	...........
	1387	27.76	1.49146E-001	-3.37703E-006	0.00000E+000	1.49200E-001	6.88826E-005	10	...........
	1406	28.14	1.30005E-001	-3.52716E-006	0.00000E+000	1.30200E-001	6.57967E-005	10	...........
	1425	28.52	1.10978E-001	-3.64393E-006	0.00000E+000	1.11200E-001	7.41369E-005	10	...........
	1444	28.9	9.20101E-002	-3.81408E-006	0.00000E+000	9.22000E-002	6.72979E-005	10	...........
	1463	29.28	7.29937E-002	-3.60723E-006	0.00000E+000	7.32000E-002	7.49709E-005	10	...........
	1482	29.66	5.39398E-002	-3.72400E-006	0.00000E+000	5.42000E-002	6.91328E-005	10	...........
	1501	30.04	3.50127E-002	-3.88247E-006	0.00000E+000	3.52000E-002	7.73061E-005	10	...........
	1520	30.42	1.62600E-002	-3.40039E-006	0.00000E+000	1.62000E-002	6.00420E-005	10	...........
	1539	30.8	-2.81524E-003	-3.92918E-006	0.00000E+000	-2.79999E-003	7.81401E-005	10	...........
	1558	31.18	-2.18508E-002	-3.70732E-006	0.00000E+000	-2.18000E-002	7.63887E-005	10	...........
	1577	31.56	-4.08623E-002	-3.54551E-006	0.00000E+000	-4.08000E-002	6.70477E-005	10	...........
	1596	31.94	-5.98306E-002	-3.22690E-006	0.00000E+000	-5.98000E-002	7.48041E-005	10	...........
	1615	32.32	-7.88946E-002	-3.42207E-006	0.00000E+000	-7.88000E-002	6.87158E-005	10	...........
	1634	32.7	-9.78477E-002	-3.40205E-006	0.00000E+000	-9.78000E-002	7.39701E-005	10	...........
	1653	33.08	-1.16836E-001	-3.26026E-006	0.00000E+000	-1.16800E-001	6.68809E-005	10	...........
	1672	33.46	-1.35791E-001	-3.25860E-006	0.00000E+000	-1.35800E-001	6.90494E-005	10	...........
	1691	33.84	-1.54768E-001	-3.18853E-006	0.00000E+000	-1.54800E-001	7.17182E-005	10	...........
	1710	34.22	-1.73750E-001	-3.29029E-006	0.00000E+000	-1.73800E-001	7.23020E-005	10	...........
	1729	34.6	-1.92785E-001	-3.78906E-006	0.00000E+000	-1.92800E-001	6.48793E-005	10	...........
	1748	34.98	-2.11791E-001	-3.59055E-006	0.00000E+000	-2.11800E-001	6.95498E-005	10	...........
	1767	35.36	-2.30709E-001	-3.57721E-006	0.00000E+000	-2.30800E-001	7.25522E-005	10	...........
	1786	35.74	-2.49702E-001	-3.68563E-006	0.00000E+000	-2.49800E-001	6.77983E-005	10	...........
	1805	36.12	-2.68693E-001	-3.01505E-006	0.00000E+000	-2.68800E-001	7.53879E-005	10	...........
	1824	36.5	-2.87591E-001	-3.57554E-006	0.00000E+000	-2.87800E-001	7.23854E-005	10	...........
	1843	36.88	-3.06631E-001	-3.60556E-006	0.00000E+000	-3.06800E-001	7.38866E-005	10	...........
	1862	37.26	-3.25632E-001	-3.73067E-006	0.00000E+000	-3.25800E-001	6.83821E-005	10	...........
	1881	37.64	-3.44663E-001	-3.22023E-006	0.00000E+000	-3.44800E-001	7.02170E-005	10	...........
	1900	38.02	-3.63689E-001	-3.33032E-006	0.00000E+000	-3.63800E-001	7.46373E-005	10	...........
	1919	38.4	-3.82611E-001	-3.75903E-006	0.00000E+000	-3.82800E-001	7.54713E-005	10	...........
	1938	38.78	-4.01591E-001	-3.55052E-006	0.00000E+000	-4.01800E-001	6.15432E-005	10	...........
	1957	39.16	-4.20479E-001	-3.46544E-006	0.00000E+000	-4.20800E-001	6.52129E-005	10	...........
	1976	39.54	-4.39486E-001	-2.97168E-006	0.00000E+000	-4.39800E-001	7.57215E-005	10	...........
	1995	39.92	-4.58487E-001	-2.76483E-006	0.00000E+000	-4.58800E-001	6.92162E-005	10	...........
	2014	40.3	-4.77522E-001	-3.11514E-006	0.00000E+000	-4.77800E-001	6.78817E-005	10	...........
	2033	40.68	-4.96589E-001	-3.12515E-006	0.00000E+000	-4.96800E-001	7.08008E-005	10	...........
	2036	40.74	-4.99526E-001	-3.32032E-006	0.00000E+000	-4.99800E-001	7.47207E-005	10	...........
CURVE2	TABLE
	Pt	T	Vf	Im	Vu	Sig	Ach	IERange	Over
	#	s	V vs. Ref.	A	V	V	V	#	bits
	2037	40.76	-4.98731E-001	-3.04341E-006	0.00000E+000	-4.99000E-001	7.43037E-005	10	...........
	2062	41.26	-4.73775E-001	-3.44709E-006	0.00000E+000	-4.74000E-001	7.83069E-005	10	...........
	2087	41.76	-4.48766E-001	-3.16518E-006	0.00000E+000	-4.49000E-001	7.55547E-005	10	...........
	2112	42.26	-4.23771E-001	-2.63472E-006	0.00000E+000	-4.24000E-001	7.42203E-005	10	...........
	2137	42.76	-3.98837E-001	-2.56799E-006	0.00000E+000	-3.99000E-001	7.37198E-005	10	...........
	2162	43.26	-3.73824E-001	-2.72146E-006	0.00000E+000	-3.74000E-001	7.98082E-005	10	...........
	2187	43.76	-3.48847E-001	-2.57800E-006	0.00000E+000	-3.49000E-001	7.05506E-005	10	...........
	2212	44.26	-3.23880E-001	-2.89161E-006	0.00000E+000	-3.24000E-001	7.83903E-005	10	...........
	2237	44.76	-2.98860E-001	-2.77985E-006	0.00000E+000	-2.99000E-001	7.78899E-005	10	...........
	2262	45.26	-2.73910E-001	-2.44622E-006	0.00000E+000	-2.74000E-001	7.87239E-005	10	...........
	2287	45.76	-2.48899E-001	-2.23437E-006	0.00000E+000	-2.49000E-001	7.73895E-005	10	...........
	2312	46.26	-2.23917E-001	-2.73981E-006	0.00000E+000	-2.24000E-001	7.16348E-005	10	...........
	2337	46.76	-1.99009E-001	-3.06509E-006	0.00000E+000	-1.99000E-001	7.52211E-005	10	...........
	2362	47.26	-1.73975E-001	-3.33533E-006	0.00000E+000	-1.74000E-001	7.51377E-005	10	...........
	2387	47.76	-1.49032E-001	-3.48212E-006	0.00000E+000	-1.49000E-001	6.88826E-005	10	...........
	2412	48.26	-1.24003E-001	-2.83156E-006	0.00000E+000	-1.24000E-001	6.45457E-005	10	...........
	2437	48.76	-9.89601E-002	-3.01171E-006	0.00000E+000	-9.90000E-002	7.27190E-005	10	...........
	2462	49.26	-7.41374E-002	-3.64393E-006	0.00000E+000	-7.40000E-002	7.42203E-005	10	...........
	2487	49.76	-4.90485E-002	-3.06176E-006	0.00000E+000	-4.90000E-002	7.69725E-005	10	...........
	2512	50.26	-2.41092E-002	-3.37036E-006	0.00000E+000	-2.40000E-002	6.35449E-005	10	...........
	2537	50.76	8.23066E-004	-3.06676E-006	0.00000E+000	1.00002E-003	6.77983E-005	10	...........
	2562	51.26	2.59720E-002	-2.99503E-006	0.00000E+000	2.60000E-002	6.87158E-005	10	...........
	2587	51.76	5.07387E-002	-3.21189E-006	0.00000E+000	5.10000E-002	7.69725E-005	10	...........
	2612	52.26	7.58683E-002	-3.44209E-006	0.00000E+000	7.60000E-002	6.94664E-005	10	...........
	2637	52.76	1.00767E-001	-3.19020E-006	0.00000E+000	1.01000E-001	6.29610E-005	10	...........
	2662	53.26	1.25750E-001	-2.80153E-006	0.00000E+000	1.26000E-001	7.10510E-005	10	...........
	2687	53.76	1.50777E-001	-3.13015E-006	0.00000E+000	1.51000E-001	7.49709E-005	10	...........
	2712	54.26	1.75677E-001	-3.05175E-006	0.00000E+000	1.76000E-001	8.23102E-005	10	...........
	2737	54.76	2.00748E-001	-3.33199E-006	0.00000E+000	2.01000E-001	7.08008E-005	10	...........
	2762	55.26	2.25874E-001	-3.17352E-006	0.00000E+000	2.26000E-001	7.28024E-005	10	...........
	2787	55.76	2.50566E-001	-2.92497E-006	0.00000E+000	2.51000E-001	7.53045E-005	10	...........
	2812	56.26	2.75637E-001	-3.50715E-006	0.00000E+000	2.76000E-001	6.64639E-005	10	...........
	2837	56.76	3.00555E-001	-3.89248E-006	0.00000E+000	3.01000E-001	7.68057E-005	10	...........
	2862	57.26	3.25592E-001	-3.58888E-006	0.00000E+000	3.26000E-001	7.13846E-005	10	...........
	2887	57.76	3.50549E-001	-3.44209E-006	0.00000E+000	3.51000E-001	7.39701E-005	10	...........
	2912	58.26	3.75386E-001	-2.82655E-006	0.00000E+000	3.76000E-001	7.86405E-005	10	...........
	2937	58.76	4.00542E-001	-3.58721E-006	0.00000E+000	4.01000E-001	8.12260E-005	10	...........
	2962	59.26	4.25470E-001	-3.47045E-006	0.00000E+000	4.26000E-001	7.72227E-005	10	...........
[...]
	12473	249.48	-4.62731E-001	-2.89995E-006	0.00000E+000	-4.63000E-001	7.83069E-005	10	...........
	12479	249.6	-4.56693E-001	-2.65140E-006	0.00000E+000	-4.57000E-001	7.08842E-005	10	...........
	12485	249.72	-4.50729E-001	-3.08845E-006	0.00000E+000	-4.51000E-001	7.80567E-005	10	...........
	12491	249.84	-4.44578E-001	-2.96334E-006	0.00000E+000	-4.45000E-001	6.98000E-005	10	...........
	12497	249.96	-4.38759E-001	-3.16685E-006	0.00000E+000	-4.39000E-001	7.55547E-005	10	...........
	12503	250.08	-4.32726E-001	-3.06176E-006	0.00000E+000	-4.33000E-001	7.21352E-005	10	...........
	12509	250.2	-4.26751E-001	-2.85658E-006	0.00000E+000	-4.27000E-001	7.42203E-005	10	...........
	12515	250.32	-4.20685E-001	-2.75649E-006	0.00000E+000	-4.21000E-001	6.14598E-005	10	...........
	12521	250.44	-4.14789E-001	-2.67475E-006	0.00000E+000	-4.15000E-001	7.13846E-005	10	...........
	12527	250.56	-4.08788E-001	-2.69811E-006	0.00000E+000	-4.09000E-001	7.13012E-005	10	...........
	12533	250.68	-4.02781E-001	-2.89995E-006	0.00000E+000	-4.03000E-001	7.00502E-005	10	...........
	12539	250.8	-3.96812E-001	-2.64306E-006	0.00000E+000	-3.97000E-001	6.91328E-005	10	...........
	12545	250.92	-3.90895E-001	-2.91330E-006	0.00000E+000	-3.91000E-001	7.40535E-005	10	...........
	12551	251.04	-3.84764E-001	-2.61470E-006	0.00000E+000	-3.85000E-001	7.22186E-005	10	...........
	12557	251.16	-3.78784E-001	-2.57133E-006	0.00000E+000	-3.79000E-001	7.72227E-005	10	...........
	12563	251.28	-3.72852E-001	-3.13015E-006	0.00000E+000	-3.73000E-001	7.06340E-005	10	...........
	12569	251.4	-3.66948E-001	-2.74315E-006	0.00000E+000	-3.67000E-001	7.31360E-005	10	...........
	12575	251.52	-3.60794E-001	-2.63472E-006	0.00000E+000	-3.61000E-001	6.78817E-005	10	...........
	12581	251.64	-3.54794E-001	-2.88661E-006	0.00000E+000	-3.55000E-001	7.38866E-005	10	...........
	12587	251.76	-3.48834E-001	-3.10680E-006	0.00000E+000	-3.49000E-001	7.14680E-005	10	...........
	12593	251.88	-3.42948E-001	-2.71479E-006	0.00000E+000	-3.43000E-001	7.71393E-005	10	...........
	12599	252	-3.36799E-001	-3.30197E-006	0.00000E+000	-3.37000E-001	7.26356E-005	10	...........
	12605	252.12	-3.30804E-001	-3.25526E-006	0.00000E+000	-3.31000E-001	6.82987E-005	10	...........
	12611	252.24	-3.24859E-001	-3.52049E-006	0.00000E+000	-3.25000E-001	7.50543E-005	10	...........
	12617	252.36	-3.18986E-001	-3.47545E-006	0.00000E+000	-3.19000E-001	7.82235E-005	10	...........
	12623	252.48	-3.12837E-001	-3.41873E-006	0.00000E+000	-3.13000E-001	6.81320E-005	10	...........
	12629	252.6	-3.06817E-001	-3.63893E-006	0.00000E+000	-3.07000E-001	7.37198E-005	10	...........
	12635	252.72	-3.00878E-001	-3.64560E-006	0.00000E+000	-3.01000E-001	6.92162E-005	10	...........
	12641	252.84	-2.94917E-001	-3.81074E-006	0.00000E+000	-2.95000E-001	7.21352E-005	10	...........
	12647	252.96	-2.88827E-001	-3.72734E-006	0.00000E+000	-2.89000E-001	7.24688E-005	10	...........
	12653	253.08	-2.82822E-001	-3.61891E-006	0.00000E+000	-2.83000E-001	7.53879E-005	10	...........
	12659	253.2	-2.76934E-001	-3.31364E-006	0.00000E+000	-2.77000E-001	7.22186E-005	10	...........
	12665	253.32	-2.70926E-001	-2.88994E-006	0.00000E+000	-2.71000E-001	8.13928E-005	10	...........
	12671	253.44	-2.64854E-001	-2.63972E-006	0.00000E+000	-2.65000E-001	7.22186E-005	10	...........
	12677	253.56	-2.58829E-001	-2.37616E-006	0.00000E+000	-2.59000E-001	7.37198E-005	10	...........
	12683	253.68	-2.52909E-001	-2.47792E-006	0.00000E+000	-2.53000E-001	7.03838E-005	10	...........
	12689	253.8	-2.46948E-001	-2.50794E-006	0.00000E+000	-2.47000E-001	7.15514E-005	10	...........
	12695	253.92	-2.40901E-001	-2.82822E-006	0.00000E+000	-2.41000E-001	6.89660E-005	10	...........
	12701	254.04	-2.34824E-001	-2.76150E-006	0.00000E+000	-2.35000E-001	7.43037E-005	10	...........
	12707	254.16	-2.28927E-001	-2.23937E-006	0.00000E+000	-2.29000E-001	6.76315E-005	10	...........
	12713	254.28	-2.22973E-001	-2.64139E-006	0.00000E+000	-2.23000E-001	7.12178E-005	10	...........
	12719	254.4	-2.16971E-001	-2.70144E-006	0.00000E+000	-2.17000E-001	6.72979E-005	10	...........
	12725	254.52	-2.10834E-001	-2.71979E-006	0.00000E+000	-2.11000E-001	6.85490E-005	10	...........
	12731	254.64	-2.04933E-001	-2.75482E-006	0.00000E+000	-2.05000E-001	6.52129E-005	10	...........
	12737	254.76	-1.99003E-001	-2.90495E-006	0.00000E+000	-1.99000E-001	5.86242E-005	10	...........
	12743	254.88	-1.92992E-001	-3.18353E-006	0.00000E+000	-1.93000E-001	7.15514E-005	10	...........
	12749	255	-1.86889E-001	-3.05842E-006	0.00000E+000	-1.87000E-001	6.31278E-005	10	...........
	12755	255.12	-1.80945E-001	-3.29029E-006	0.00000E+000	-1.81000E-001	6.75481E-005	10	...........
	12761	255.24	-1.75011E-001	-2.82655E-006	0.00000E+000	-1.75000E-001	6.62971E-005	10	...........
	12767	255.36	-1.68990E-001	-3.14516E-006	0.00000E+000	-1.69000E-001	6.88826E-005	10	...........
	12773	255.48	-1.62855E-001	-3.19521E-006	0.00000E+000	-1.63000E-001	6.50461E-005	10	...........
	12779	255.6	-1.57025E-001	-2.99003E-006	0.00000E+000	-1.57000E-001	7.20518E-005	10	...........
	12785	255.72	-1.51022E-001	-2.88160E-006	0.00000E+000	-1.51000E-001	7.62219E-005	10	...........
	12791	255.84	-1.45011E-001	-3.17019E-006	0.00000E+000	-1.45000E-001	7.38032E-005	10	...........
	12797	255.96	-1.38905E-001	-3.52883E-006	0.00000E+000	-1.39000E-001	6.63805E-005	10	...........
	12803	256.08	-1.32988E-001	-3.35535E-006	0.00000E+000	-1.33000E-001	7.25522E-005	10	...........
	12809	256.2	-1.27035E-001	-3.38204E-006	0.00000E+000	-1.27000E-001	7.63887E-005	10	...........
	12815	256.32	-1.21018E-001	-3.30697E-006	0.00000E+000	-1.21000E-001	7.69725E-005	10	...........
	12821	256.44	-1.15039E-001	-3.16852E-006	0.00000E+000	-1.15000E-001	7.68891E-005	10	...........
	12827	256.56	-1.09070E-001	-3.46544E-006	0.00000E+000	-1.09000E-001	7.89741E-005	10	...........
	12833	256.68	-1.03031E-001	-3.35535E-006	0.00000E+000	-1.03000E-001	7.03838E-005	10	...........
	12839	256.8	-9.70372E-002	-2.82322E-006	0.00000E+000	-9.70000E-002	7.93912E-005	10	...........
	12845	256.92	-9.10766E-002	-3.15851E-006	0.00000E+000	-9.10000E-002	7.23020E-005	10	...........
	12851	257.04	-8.50564E-002	-3.48713E-006	0.00000E+000	-8.50000E-002	7.37198E-005	10	...........
	12857	257.16	-7.90328E-002	-3.69064E-006	0.00000E+000	-7.90000E-002	7.55547E-005	10	...........
	12863	257.28	-7.30399E-002	-3.44376E-006	0.00000E+000	-7.30000E-002	7.92243E-005	10	...........
	12869	257.4	-6.70571E-002	-3.13182E-006	0.00000E+000	-6.70000E-002	7.66389E-005	10	...........
	12875	257.52	-6.11250E-002	-3.22023E-006	0.00000E+000	-6.10000E-002	7.76397E-005	10	...........
	12881	257.64	-5.50500E-002	-2.75649E-006	0.00000E+000	-5.50000E-002	7.33862E-005	10	...........
	12887	257.76	-4.90434E-002	-3.02339E-006	0.00000E+000	-4.90000E-002	8.03086E-005	10	...........
	12893	257.88	-4.30531E-002	-2.86659E-006	0.00000E+000	-4.30000E-002	7.51377E-005	10	...........
	12899	258	-3.71416E-002	-2.83990E-006	0.00000E+000	-3.70000E-002	7.73061E-005	10	...........
	12905	258.12	-3.10925E-002	-2.85324E-006	0.00000E+000	-3.10000E-002	7.50543E-005	10	...........
	12911	258.24	-2.50660E-002	-2.61137E-006	0.00000E+000	-2.50000E-002	7.49709E-005	10	...........
	12917	258.36	-1.90643E-002	-2.64806E-006	0.00000E+000	-1.90000E-002	7.62219E-005	10	...........
	12923	258.48	-1.31294E-002	-3.13349E-006	0.00000E+000	-1.30000E-002	7.80567E-005	10	...........
	12929	258.6	-7.08132E-003	-3.20522E-006	0.00000E+000	-6.99998E-003	7.82235E-005	10	...........
	12935	258.72	-1.07299E-003	-3.01839E-006	0.00000E+000	-9.99987E-004	7.18850E-005	10	...........
	12941	258.84	4.78839E-003	-3.06343E-006	0.00000E+000	5.00001E-003	7.20518E-005	10	...........
	12947	258.96	1.07966E-002	-3.24358E-006	0.00000E+000	1.10000E-002	7.43871E-005	10	...........
	12953	259.08	1.68452E-002	-3.13349E-006	0.00000E+000	1.70000E-002	6.85490E-005	10	...........
	12959	259.2	2.28470E-002	-2.93665E-006	0.00000E+000	2.30000E-002	8.10592E-005	10	...........
	12965	259.32	2.88559E-002	-3.10179E-006	0.00000E+000	2.90000E-002	7.23020E-005	10	...........
	12971	259.44	3.47810E-002	-2.68810E-006	0.00000E+000	3.50000E-002	7.36364E-005	10	...........
	12977	259.56	4.08184E-002	-3.17019E-006	0.00000E+000	4.10000E-002	6.97166E-005	10	...........
	12983	259.68	4.68309E-002	-3.75069E-006	0.00000E+000	4.70000E-002	7.31360E-005	10	...........
	12989	259.8	5.28602E-002	-3.55052E-006	0.00000E+000	5.30000E-002	7.33862E-005	10	...........
	12995	259.92	5.87711E-002	-3.19854E-006	0.00000E+000	5.90000E-002	7.34697E-005	10	...........
	13000	260.02	6.37756E-002	-3.38537E-006	0.00000E+000	6.40000E-002	8.33944E-005	10	...........