File: 20191129/matning1/CVTESTKRISTALL4BOX5_3.DTA
EXPLAIN
TAG	CV
TITLE	LABEL	CV	Test &Identifier
DATE	LABEL	11/29/2019	Date
TIME	LABEL	11:09:48	Time
NOTES	NOTES	1	&Notes...

PSTAT	PSTAT	REF600-16093	Potentiostat
VINIT	POTEN	0.00000E+000	T	Initial &E (V)
VLIMIT1	POTEN	8.00000E-001	F	Scan Limit &1 (V)
VLIMIT2	POTEN	-5.00000E-001	F	Scan Limit &2 (V)
VFINAL	POTEN	0.00000E+000	T	Final &E (V)
SCANRATE	QUANT	4.99999E+001	&Scan Rate (mV/s)
STEPSIZE	QUANT	1.00000E+000	St&ep Size (mV)
CYCLES	IQUANT	5	C&ycles (#)
IMODE	SELECTOR	1	I/E Range &Mode
IRANGE	QUANT	1.50000E+001	&Max Current (mA)
AREA	QUANT	1.00000E+000	Electrode &Area (cm^2)
ELECTRODETYPE	SELECTOR	0	Electrode Type
STRIPPING	TOGGLE	F	Used for Stripping
POLARITY	TOGGLE	F	Signal Polarity
CONDIT	TWOPARAM	F	1.50000E+001	0.00000E+000	Conditionin&g	Time(s)	E(V)
DELAY	TWOPARAM	T	5.00000E+000	0.00000E+000	Init. De&lay	Time(s)	Stab.(mV/s)
EQDELAY	QUANT	3.00000E+000	Equil. &Time (s)
IRCOMP	SELECTOR	0	IRCom&p
PFCOR	QUANT	0.00000E+000	PF Corr. (ohm)
SAMPLINGMODE	SELECTOR	2	Sampling &Mode
OCVCURVE	TABLE	20
	Pt	T	Vf	Vm	Ach	Over
	#	s	V vs. Ref.	V	V	bits
	0	0.25	1.07525E-001	1.07525E-001	7.78503E-005	...........
	1	0.5	1.07628E-001	1.12935E-001	8.24752E-005	...........
	2	0.75	1.08096E-001	1.09300E-001	7.92253E-005	...........
	3	1	1.08933E-001	1.09597E-001	8.00586E-005	...........
	4	1.25	1.09687E-001	1.10751E-001	7.88086E-005	...........
	5	1.5	1.10082E-001	1.11591E-001	7.37253E-005	...........
	6	1.75	1.10215E-001	1.04581E-001	7.93502E-005	...........
	7	2	1.09882E-001	1.04411E-001	7.91419E-005	...........
	8	2.25	1.08875E-001	1.12463E-001	7.49753E-005	...........
	9	2.5	1.07918E-001	1.09062E-001	8.11002E-005	...........
	10	2.75	1.07918E-001	1.10583E-001	8.20169E-005	...........
	11	3	1.08718E-001	1.10997E-001	8.15169E-005	...........
	12	3.25	1.09574E-001	1.08284E-001	7.91836E-005	...........
	13	3.5	1.09897E-001	1.03812E-001	7.88503E-005	...........
	14	3.75	1.09355E-001	1.08073E-001	7.98086E-005	...........
	15	4	1.08322E-001	1.12079E-001	7.79336E-005	...........
	16	4.25	1.07806E-001	1.07984E-001	7.99336E-005	...........
	17	4.5	1.08191E-001	1.10248E-001	7.53503E-005	...........
	18	4.75	1.08927E-001	1.11233E-001	7.94336E-005	...........
	19	5	1.09598E-001	1.12079E-001	7.63086E-005	...........
EOC	QUANT	0.1095983	Open Circuit (V)
PSTATMODEL	IQUANT	4	Pstat Model
PSTATSECTION	LABEL	REF600-16093	Pstat Section
PSTATSERIALNO	LABEL	16093	Pstat Serial Number
CTRLMODE	IQUANT	1	Control Mode
IESTAB	IQUANT	2	I/E Stability
CASPEED	IQUANT	2	Control Amp Speed
CONVENTION	IQUANT	1	Current Convention
ICHRANGE	IQUANT	2	Ich Range
ICHRANGEMODE	TOGGLE	F	Ich Auto Range
ICHOFFSETENABLE	TOGGLE	F	Ich Offset Enable
ICHOFFSET	QUANT	0	Ich Offset (V)
ICHFILTER	IQUANT	2	Ich Filter
VCHRANGE	IQUANT	2	Vch Range
VCHRANGEMODE	TOGGLE	F	Vch Auto Range
VCHOFFSETENABLE	TOGGLE	F	Vch Offset Enable
VCHOFFSET	QUANT	0	Vch Offset (V)
VCHFILTER	IQUANT	2	Vch Filter
ACHRANGE	IQUANT	2	Ach Range
ACHOFFSETENABLE	TOGGLE	F	Ach Offset Enable
ACHOFFSET	QUANT	0	Ach Offset (V)
ACHFILTER	IQUANT	1	Ach Filter
IERANGELOWERLIMIT	IQUANT	1	I/E Range Lower Limit
IERANGEMODE	TOGGLE	F	I/E AutoRange
IERANGE	IQUANT	10	I/E Range
POSFEEDENABLE	TOGGLE	F	Positive Feedback IR Comp
POSFEEDRESISTANCE	QUANT	0	Positive Feedback Resistance (ohm)
ACHSELECT	IQUANT	0	Ach Select
CABLEID	IQUANT	14	Cable ID
DCCALDATE	LABEL	11/5/2019	DC Calibration Date
ACCALDATE	LABEL		AC Calibration Date
THERMOSELECT	IQUANT	1	Thermo Select
FRAMEWORKVERSION	QUANT	6.12	Framework Version
INSTRUMENTVERSION	LABEL	3.11	Instrument Version
CURVE1	TABLE
	Pt	T	Vf	Im	Vu	Sig	Ach	IERange	Over
	#	s	V vs. Ref.	A	V	V	V	#	bits
	0	0.02	1.09270E-001	-1.78731E-006	0.00000E+000	1.09600E-001	7.47207E-005	10	...........
	19	0.4	1.28369E-001	-2.06923E-006	0.00000E+000	1.28600E-001	6.85490E-005	10	...........
	38	0.78	1.47301E-001	-2.03086E-006	0.00000E+000	1.47600E-001	6.55465E-005	10	...........
	57	1.16	1.66182E-001	-1.98749E-006	0.00000E+000	1.66600E-001	7.49709E-005	10	...........
	76	1.54	1.85142E-001	-1.91910E-006	0.00000E+000	1.85600E-001	6.88826E-005	10	...........
	95	1.92	2.04167E-001	-1.67889E-006	0.00000E+000	2.04600E-001	7.06340E-005	10	...........
	114	2.3	2.23184E-001	-1.80066E-006	0.00000E+000	2.23600E-001	6.92996E-005	10	...........
	133	2.68	2.42134E-001	-1.81567E-006	0.00000E+000	2.42600E-001	7.03004E-005	10	...........
	152	3.06	2.61170E-001	-1.56545E-006	0.00000E+000	2.61600E-001	6.92162E-005	10	...........
	171	3.44	2.80259E-001	-1.98415E-006	0.00000E+000	2.80600E-001	7.04672E-005	10	...........
	190	3.82	2.99117E-001	-1.70724E-006	0.00000E+000	2.99600E-001	7.03838E-005	10	...........
	209	4.2	3.18046E-001	-1.91076E-006	0.00000E+000	3.18600E-001	7.04672E-005	10	...........
	228	4.58	3.36984E-001	-1.85571E-006	0.00000E+000	3.37600E-001	7.54713E-005	10	...........
	247	4.96	3.56064E-001	-2.23937E-006	0.00000E+000	3.56600E-001	6.50461E-005	10	...........
	266	5.34	3.75099E-001	-1.46203E-006	0.00000E+000	3.75600E-001	6.64639E-005	10	...........
	285	5.72	3.94024E-001	-2.58301E-006	0.00000E+000	3.94600E-001	7.73895E-005	10	...........
	304	6.1	4.13109E-001	-2.09758E-006	0.00000E+000	4.13600E-001	6.78817E-005	10	...........
	323	6.48	4.32036E-001	-2.00917E-006	0.00000E+000	4.32600E-001	6.59635E-005	10	...........
	342	6.86	4.50886E-001	-2.07924E-006	0.00000E+000	4.51600E-001	7.59717E-005	10	...........
	361	7.24	4.69906E-001	-2.23771E-006	0.00000E+000	4.70600E-001	6.99668E-005	10	...........
	380	7.62	4.88945E-001	-2.66808E-006	0.00000E+000	4.89600E-001	7.64721E-005	10	...........
	399	8	5.07968E-001	-2.74648E-006	0.00000E+000	5.08600E-001	7.07174E-005	10	...........
	418	8.38	5.26937E-001	-2.83323E-006	0.00000E+000	5.27600E-001	7.36364E-005	10	...........
	437	8.76	5.45938E-001	-2.66975E-006	0.00000E+000	5.46600E-001	7.51377E-005	10	...........
	456	9.14	5.64988E-001	-2.64473E-006	0.00000E+000	5.65600E-001	7.03004E-005	10	...........
	475	9.52	5.83902E-001	-2.52963E-006	0.00000E+000	5.84600E-001	7.34697E-005	10	...........
	494	9.9	6.02697E-001	-2.88160E-006	0.00000E+000	6.03600E-001	7.02170E-005	10	...........
	513	10.28	6.21754E-001	-2.36615E-006	0.00000E+000	6.22600E-001	7.23854E-005	10	...........
	532	10.66	6.40797E-001	-2.27941E-006	0.00000E+000	6.41600E-001	6.71311E-005	10	...........
	551	11.04	6.59807E-001	-2.14096E-006	0.00000E+000	6.60600E-001	7.25522E-005	10	...........
	570	11.42	6.78767E-001	-2.04921E-006	0.00000E+000	6.79600E-001	7.03004E-005	10	...........
	589	11.8	6.97817E-001	-2.43121E-006	0.00000E+000	6.98600E-001	7.06340E-005	10	...........
	608	12.18	7.16731E-001	-2.28608E-006	0.00000E+000	7.17600E-001	5.92080E-005	10	...........
	627	12.56	7.35675E-001	-2.83990E-006	0.00000E+000	7.36600E-001	6.60469E-005	10	...........
	646	12.94	7.54632E-001	-2.74648E-006	0.00000E+000	7.55600E-001	7.30526E-005	10	...........
	665	13.32	7.73700E-001	-2.17265E-006	0.00000E+000	7.74600E-001	7.06340E-005	10	...........
	684	13.7	7.92738E-001	-2.29943E-006	0.00000E+000	7.93600E-001	6.39619E-005	10	...........
	703	14.08	7.85723E-001	-2.52629E-006	0.00000E+000	7.86600E-001	6.82987E-005	10	...........
	722	14.46	7.66774E-001	-2.33112E-006	0.00000E+000	7.67600E-001	6.62971E-005	10	...........
	741	14.84	7.47733E-001	-2.26440E-006	0.00000E+000	7.48600E-001	6.87992E-005	10	...........
	760	15.22	7.28709E-001	-2.30110E-006	0.00000E+000	7.29600E-001	6.63805E-005	10	...........
	779	15.6	7.09763E-001	-1.73394E-006	0.00000E+000	7.10600E-001	7.09676E-005	10	...........
	798	15.98	6.90687E-001	-1.71392E-006	0.00000E+000	6.91600E-001	6.88826E-005	10	...........
	817	16.36	6.71754E-001	-2.20434E-006	0.00000E+000	6.72600E-001	7.93912E-005	10	...........
	836	16.74	6.52768E-001	-2.76316E-006	0.00000E+000	6.53600E-001	6.90494E-005	10	...........
	855	17.12	6.33979E-001	-2.90329E-006	0.00000E+000	6.34600E-001	6.93830E-005	10	...........
	874	17.5	6.14831E-001	-2.21602E-006	0.00000E+000	6.15600E-001	6.40453E-005	10	...........
	893	17.88	5.95873E-001	-2.05255E-006	0.00000E+000	5.96600E-001	6.37117E-005	10	...........
	912	18.26	5.76845E-001	-2.12594E-006	0.00000E+000	5.77600E-001	6.42955E-005	10	...........
	931	18.64	5.57792E-001	-2.12761E-006	0.00000E+000	5.58600E-001	6.79651E-005	10	...........
	950	19.02	5.38836E-001	-2.24104E-006	0.00000E+000	5.39600E-001	6.27108E-005	10	...........
	969	19.4	5.19918E-001	-1.94245E-006	0.00000E+000	5.20600E-001	6.98834E-005	10	...........
	988	19.78	5.01122E-001	-2.38450E-006	0.00000E+000	5.01600E-001	6.92162E-005	10	...........
	1007	20.16	4.82002E-001	-2.85491E-006	0.00000E+000	4.82600E-001	7.00502E-005	10	...........
	1026	20.54	4.63004E-001	-3.00337E-006	0.00000E+000	4.63600E-001	7.16348E-005	10	...........
	1045	20.92	4.43993E-001	-2.35448E-006	0.00000E+000	4.44600E-001	6.44623E-005	10	...........
	1064	21.3	4.24980E-001	-2.21102E-006	0.00000E+000	4.25600E-001	6.92996E-005	10	...........
	1083	21.68	4.05950E-001	-2.37282E-006	0.00000E+000	4.06600E-001	6.88826E-005	10	...........
	1102	22.06	3.87001E-001	-2.08424E-006	0.00000E+000	3.87600E-001	6.89660E-005	10	...........
	1121	22.44	3.68061E-001	-2.33779E-006	0.00000E+000	3.68600E-001	6.72145E-005	10	...........
	1140	22.82	3.49173E-001	-1.86905E-006	0.00000E+000	3.49600E-001	6.27942E-005	10	...........
	1159	23.2	3.30105E-001	-1.99083E-006	0.00000E+000	3.30600E-001	6.88826E-005	10	...........
	1178	23.58	3.11119E-001	-1.49039E-006	0.00000E+000	3.11600E-001	6.76315E-005	10	...........
	1197	23.96	2.92119E-001	-1.79732E-006	0.00000E+000	2.92600E-001	7.18016E-005	10	...........
	1216	24.34	2.73002E-001	-1.74561E-006	0.00000E+000	2.73600E-001	7.29692E-005	10	...........
	1235	24.72	2.54141E-001	-2.55632E-006	0.00000E+000	2.54600E-001	7.24688E-005	10	...........
	1254	25.1	2.35137E-001	-2.69143E-006	0.00000E+000	2.35600E-001	5.99586E-005	10	...........
	1273	25.48	2.16166E-001	-2.60803E-006	0.00000E+000	2.16600E-001	6.67975E-005	10	...........
	1292	25.86	1.97219E-001	-1.98582E-006	0.00000E+000	1.97600E-001	6.64639E-005	10	...........
	1311	26.24	1.78288E-001	-2.61637E-006	0.00000E+000	1.78600E-001	6.90494E-005	10	...........
	1330	26.62	1.59242E-001	-2.58801E-006	0.00000E+000	1.59600E-001	6.05424E-005	10	...........
	1349	27	1.40207E-001	-2.05088E-006	0.00000E+000	1.40600E-001	6.27942E-005	10	...........
	1368	27.38	1.21166E-001	-2.30110E-006	0.00000E+000	1.21600E-001	6.61303E-005	10	...........
	1387	27.76	1.02298E-001	-3.11847E-006	0.00000E+000	1.02600E-001	6.35449E-005	10	...........
	1406	28.14	8.33329E-002	-2.97001E-006	0.00000E+000	8.36000E-002	6.68809E-005	10	...........
	1425	28.52	6.43534E-002	-3.26193E-006	0.00000E+000	6.46000E-002	6.77983E-005	10	...........
	1444	28.9	4.53693E-002	-3.24692E-006	0.00000E+000	4.56000E-002	6.32113E-005	10	...........
	1463	29.28	2.63766E-002	-2.95667E-006	0.00000E+000	2.66000E-002	6.33781E-005	10	...........
	1482	29.66	7.31971E-003	-2.90495E-006	0.00000E+000	7.60001E-003	7.11344E-005	10	...........
	1501	30.04	-1.17174E-002	-2.50961E-006	0.00000E+000	-1.14000E-002	6.80485E-005	10	...........
	1520	30.42	-3.05553E-002	-2.86826E-006	0.00000E+000	-3.04000E-002	6.41287E-005	10	...........
	1539	30.8	-4.95343E-002	-3.51715E-006	0.00000E+000	-4.94000E-002	6.59635E-005	10	...........
	1558	31.18	-6.85159E-002	-3.08178E-006	0.00000E+000	-6.84000E-002	6.62971E-005	10	...........
	1577	31.56	-8.75128E-002	-3.13182E-006	0.00000E+000	-8.74000E-002	6.96332E-005	10	...........
	1596	31.94	-1.06458E-001	-3.46544E-006	0.00000E+000	-1.06400E-001	6.79651E-005	10	...........
	1615	32.32	-1.25473E-001	-2.84323E-006	0.00000E+000	-1.25400E-001	6.53797E-005	10	...........
	1634	32.7	-1.44520E-001	-3.19187E-006	0.00000E+000	-1.44400E-001	6.41287E-005	10	...........
	1653	33.08	-1.63521E-001	-2.92664E-006	0.00000E+000	-1.63400E-001	7.13012E-005	10	...........
	1672	33.46	-1.82459E-001	-2.60136E-006	0.00000E+000	-1.82400E-001	6.78817E-005	10	...........
	1691	33.84	-2.01377E-001	-2.31277E-006	0.00000E+000	-2.01400E-001	6.39619E-005	10	...........
	1710	34.22	-2.20416E-001	-2.48125E-006	0.00000E+000	-2.20400E-001	7.16348E-005	10	...........
	1729	34.6	-2.39342E-001	-2.50961E-006	0.00000E+000	-2.39400E-001	7.32194E-005	10	...........
	1748	34.98	-2.58362E-001	-2.78652E-006	0.00000E+000	-2.58400E-001	6.73813E-005	10	...........
	1767	35.36	-2.77395E-001	-3.28862E-006	0.00000E+000	-2.77400E-001	7.08008E-005	10	...........
	1786	35.74	-2.96399E-001	-2.99003E-006	0.00000E+000	-2.96400E-001	7.23020E-005	10	...........
	1805	36.12	-3.15322E-001	-2.82655E-006	0.00000E+000	-3.15400E-001	7.10510E-005	10	...........
	1824	36.5	-3.34278E-001	-3.07343E-006	0.00000E+000	-3.34400E-001	6.96332E-005	10	...........
	1843	36.88	-3.53247E-001	-3.11180E-006	0.00000E+000	-3.53400E-001	6.78817E-005	10	...........
	1862	37.26	-3.72308E-001	-3.95420E-006	0.00000E+000	-3.72400E-001	6.90494E-005	10	...........
	1881	37.64	-3.91209E-001	-3.63225E-006	0.00000E+000	-3.91400E-001	6.40453E-005	10	...........
	1900	38.02	-4.10218E-001	-3.58388E-006	0.00000E+000	-4.10400E-001	6.77149E-005	10	...........
	1919	38.4	-4.29279E-001	-3.87914E-006	0.00000E+000	-4.29400E-001	6.42121E-005	10	...........
	1938	38.78	-4.48258E-001	-3.94252E-006	0.00000E+000	-4.48400E-001	7.33862E-005	10	...........
	1957	39.16	-4.67238E-001	-3.38537E-006	0.00000E+000	-4.67400E-001	6.47125E-005	10	...........
	1976	39.54	-4.86048E-001	-2.60469E-006	0.00000E+000	-4.86400E-001	6.37117E-005	10	...........
	1990	39.82	-5.00222E-001	-2.96834E-006	0.00000E+000	-5.00400E-001	6.87158E-005	10	...........
CURVE2	TABLE
	Pt	T	Vf	Im	Vu	Sig	Ach	IERange	Over
	#	s	V vs. Ref.	A	V	V	V	#	bits
	1991	39.84	-4.98809E-001	-2.93665E-006	0.00000E+000	-4.99000E-001	6.23772E-005	10	...........
	2016	40.34	-4.73878E-001	-2.98002E-006	0.00000E+000	-4.74000E-001	7.63053E-005	10	...........
	2041	40.84	-4.48869E-001	-2.96334E-006	0.00000E+000	-4.49000E-001	6.62137E-005	10	...........
	2066	41.34	-4.23883E-001	-2.88827E-006	0.00000E+000	-4.24000E-001	6.94664E-005	10	...........
	2091	41.84	-3.98928E-001	-2.70645E-006	0.00000E+000	-3.99000E-001	6.87158E-005	10	...........
	2116	42.34	-3.73916E-001	-2.70645E-006	0.00000E+000	-3.74000E-001	7.23854E-005	10	...........
	2141	42.84	-3.48945E-001	-2.97835E-006	0.00000E+000	-3.49000E-001	6.94664E-005	10	...........
	2166	43.34	-3.23966E-001	-2.58301E-006	0.00000E+000	-3.24000E-001	7.14680E-005	10	...........
	2191	43.84	-2.98939E-001	-2.58968E-006	0.00000E+000	-2.99000E-001	7.29692E-005	10	...........
	2216	44.34	-2.74036E-001	-3.37703E-006	0.00000E+000	-2.74000E-001	6.90494E-005	10	...........
	2241	44.84	-2.49014E-001	-2.78985E-006	0.00000E+000	-2.49000E-001	7.86405E-005	10	...........
	2266	45.34	-2.24043E-001	-2.87493E-006	0.00000E+000	-2.24000E-001	6.74647E-005	10	...........
	2291	45.84	-1.99066E-001	-3.21689E-006	0.00000E+000	-1.99000E-001	7.63887E-005	10	...........
	2316	46.34	-1.74045E-001	-3.44376E-006	0.00000E+000	-1.74000E-001	7.31360E-005	10	...........
	2341	46.84	-1.49112E-001	-2.87159E-006	0.00000E+000	-1.49000E-001	7.42203E-005	10	...........
	2366	47.34	-1.24091E-001	-3.03840E-006	0.00000E+000	-1.24000E-001	6.64639E-005	10	...........
	2391	47.84	-9.91352E-002	-2.48959E-006	0.00000E+000	-9.90000E-002	6.96332E-005	10	...........
	2416	48.34	-7.42131E-002	-3.21022E-006	0.00000E+000	-7.40000E-002	6.78817E-005	10	...........
	2441	48.84	-4.91587E-002	-3.06509E-006	0.00000E+000	-4.90000E-002	7.59717E-005	10	...........
	2466	49.34	-2.42249E-002	-2.54464E-006	0.00000E+000	-2.40000E-002	7.55547E-005	10	...........
	2491	49.84	7.40248E-004	-3.01839E-006	0.00000E+000	1.00002E-003	7.17182E-005	10	...........
	2516	50.34	2.59127E-002	-3.34867E-006	0.00000E+000	2.60000E-002	7.57215E-005	10	...........
	2541	50.84	5.06045E-002	-3.00504E-006	0.00000E+000	5.10000E-002	7.13846E-005	10	...........
	2566	51.34	7.57322E-002	-3.12181E-006	0.00000E+000	7.60000E-002	7.55547E-005	10	...........
	2591	51.84	1.00679E-001	-2.84323E-006	0.00000E+000	1.01000E-001	6.32113E-005	10	...........
	2616	52.34	1.25657E-001	-2.45289E-006	0.00000E+000	1.26000E-001	6.98834E-005	10	...........
	2641	52.84	1.50750E-001	-3.26860E-006	0.00000E+000	1.51000E-001	7.23020E-005	10	...........
	2666	53.34	1.75512E-001	-2.79819E-006	0.00000E+000	1.76000E-001	7.56381E-005	10	...........
	2691	53.84	2.00626E-001	-3.02840E-006	0.00000E+000	2.01000E-001	7.39701E-005	10	...........
	2716	54.34	2.25654E-001	-2.43788E-006	0.00000E+000	2.26000E-001	6.14598E-005	10	...........
	2741	54.84	2.50511E-001	-2.85825E-006	0.00000E+000	2.51000E-001	7.02170E-005	10	...........
	2766	55.34	2.75576E-001	-3.14183E-006	0.00000E+000	2.76000E-001	7.66389E-005	10	...........
	2791	55.84	3.00405E-001	-3.10680E-006	0.00000E+000	3.01000E-001	7.75563E-005	10	...........
	2816	56.34	3.25527E-001	-2.74148E-006	0.00000E+000	3.26000E-001	7.04672E-005	10	...........
	2841	56.84	3.50431E-001	-2.81321E-006	0.00000E+000	3.51000E-001	7.14680E-005	10	...........
	2866	57.34	3.75375E-001	-2.29109E-006	0.00000E+000	3.76000E-001	7.63887E-005	10	...........
	2891	57.84	4.00423E-001	-2.47958E-006	0.00000E+000	4.01000E-001	7.65555E-005	10	...........
	2916	58.34	4.25308E-001	-2.48459E-006	0.00000E+000	4.26000E-001	8.21434E-005	10	...........
	2941	58.84	4.50376E-001	-2.07256E-006	0.00000E+000	4.51000E-001	7.46373E-005	10	...........
	2966	59.34	4.75552E-001	-2.07423E-006	0.00000E+000	4.76000E-001	7.65555E-005	10	...........
	2991	59.84	5.00173E-001	-3.01338E-006	0.00000E+000	5.01000E-001	7.53879E-005	10	...........
[...]
	12469	249.4	-4.20893E-001	-3.31198E-006	0.00000E+000	-4.21000E-001	6.61303E-005	10	...........
	12475	249.52	-4.14938E-001	-3.39538E-006	0.00000E+000	-4.15000E-001	7.03838E-005	10	...........
	12481	249.64	-4.08869E-001	-3.05509E-006	0.00000E+000	-4.09000E-001	7.02170E-005	10	...........
	12487	249.76	-4.02857E-001	-3.20188E-006	0.00000E+000	-4.03000E-001	6.96332E-005	10	...........
	12493	249.88	-3.96929E-001	-3.03340E-006	0.00000E+000	-3.97000E-001	6.55465E-005	10	...........
	12499	250	-3.91000E-001	-3.00171E-006	0.00000E+000	-3.91000E-001	7.43871E-005	10	...........
	12505	250.12	-3.84835E-001	-3.06509E-006	0.00000E+000	-3.85000E-001	6.50461E-005	10	...........
	12511	250.24	-3.78845E-001	-3.26026E-006	0.00000E+000	-3.79000E-001	6.88826E-005	10	...........
	12517	250.36	-3.72962E-001	-3.04508E-006	0.00000E+000	-3.73000E-001	6.79651E-005	10	...........
	12523	250.48	-3.67011E-001	-2.91830E-006	0.00000E+000	-3.67000E-001	7.56381E-005	10	...........
	12529	250.6	-3.60867E-001	-3.26360E-006	0.00000E+000	-3.61000E-001	6.72145E-005	10	...........
	12535	250.72	-3.54837E-001	-3.25192E-006	0.00000E+000	-3.55000E-001	6.87992E-005	10	...........
	12541	250.84	-3.48944E-001	-3.36869E-006	0.00000E+000	-3.49000E-001	6.38785E-005	10	...........
	12547	250.96	-3.43013E-001	-3.23524E-006	0.00000E+000	-3.43000E-001	7.17182E-005	10	...........
	12553	251.08	-3.36861E-001	-3.01338E-006	0.00000E+000	-3.37000E-001	6.17934E-005	10	...........
	12559	251.2	-3.30830E-001	-2.77651E-006	0.00000E+000	-3.31000E-001	6.71311E-005	10	...........
	12565	251.32	-3.24958E-001	-2.88827E-006	0.00000E+000	-3.25000E-001	6.72145E-005	10	...........
	12571	251.44	-3.19038E-001	-2.98836E-006	0.00000E+000	-3.19000E-001	7.10510E-005	10	...........
	12577	251.56	-3.12908E-001	-3.22357E-006	0.00000E+000	-3.13000E-001	6.98000E-005	10	...........
	12583	251.68	-3.06837E-001	-2.75816E-006	0.00000E+000	-3.07000E-001	6.72145E-005	10	...........
	12589	251.8	-3.00988E-001	-3.22857E-006	0.00000E+000	-3.01000E-001	7.00502E-005	10	...........
	12595	251.92	-2.95010E-001	-3.38704E-006	0.00000E+000	-2.95000E-001	7.09676E-005	10	...........
	12601	252.04	-2.88915E-001	-3.05342E-006	0.00000E+000	-2.89000E-001	6.66307E-005	10	...........
	12607	252.16	-2.82872E-001	-3.55052E-006	0.00000E+000	-2.83000E-001	6.93830E-005	10	...........
	12613	252.28	-2.77015E-001	-3.38204E-006	0.00000E+000	-2.77000E-001	7.23020E-005	10	...........
	12619	252.4	-2.71025E-001	-3.12515E-006	0.00000E+000	-2.71000E-001	7.12178E-005	10	...........
	12625	252.52	-2.64961E-001	-3.26527E-006	0.00000E+000	-2.65000E-001	7.20518E-005	10	...........
	12631	252.64	-2.58889E-001	-3.65728E-006	0.00000E+000	-2.59000E-001	6.39619E-005	10	...........
	12637	252.76	-2.53050E-001	-3.01839E-006	0.00000E+000	-2.53000E-001	7.38032E-005	10	...........
	12643	252.88	-2.47050E-001	-3.62225E-006	0.00000E+000	-2.47000E-001	7.03838E-005	10	...........
	12649	253	-2.41007E-001	-3.21356E-006	0.00000E+000	-2.41000E-001	7.55547E-005	10	...........
	12655	253.12	-2.34853E-001	-2.90329E-006	0.00000E+000	-2.35000E-001	6.70477E-005	10	...........
	12661	253.24	-2.29058E-001	-2.84824E-006	0.00000E+000	-2.29000E-001	7.12178E-005	10	...........
	12667	253.36	-2.23066E-001	-2.65140E-006	0.00000E+000	-2.23000E-001	7.49709E-005	10	...........
	12673	253.48	-2.17051E-001	-2.92330E-006	0.00000E+000	-2.17000E-001	6.78817E-005	10	...........
	12679	253.6	-2.10904E-001	-2.96167E-006	0.00000E+000	-2.11000E-001	7.46373E-005	10	...........
	12685	253.72	-2.05057E-001	-3.11681E-006	0.00000E+000	-2.05000E-001	7.48875E-005	10	...........
	12691	253.84	-1.99061E-001	-2.60636E-006	0.00000E+000	-1.99000E-001	6.95498E-005	10	...........
	12697	253.96	-1.93093E-001	-3.20688E-006	0.00000E+000	-1.93000E-001	7.73895E-005	10	...........
	12703	254.08	-1.87014E-001	-2.95166E-006	0.00000E+000	-1.87000E-001	7.33862E-005	10	...........
	12709	254.2	-1.81052E-001	-2.63472E-006	0.00000E+000	-1.81000E-001	7.26356E-005	10	...........
	12715	254.32	-1.75060E-001	-2.56966E-006	0.00000E+000	-1.75000E-001	7.19684E-005	10	...........
	12721	254.44	-1.69095E-001	-2.57467E-006	0.00000E+000	-1.69000E-001	7.61385E-005	10	...........
	12727	254.56	-1.62968E-001	-2.81321E-006	0.00000E+000	-1.63000E-001	6.13764E-005	10	...........
	12733	254.68	-1.57117E-001	-2.65974E-006	0.00000E+000	-1.57000E-001	7.33862E-005	10	...........
	12739	254.8	-1.51074E-001	-2.32445E-006	0.00000E+000	-1.51000E-001	7.19684E-005	10	...........
	12745	254.92	-1.45097E-001	-2.71145E-006	0.00000E+000	-1.45000E-001	7.18850E-005	10	...........
	12751	255.04	-1.38973E-001	-2.58468E-006	0.00000E+000	-1.39000E-001	6.07926E-005	10	...........
	12757	255.16	-1.33120E-001	-2.42287E-006	0.00000E+000	-1.33000E-001	7.03838E-005	10	...........
	12763	255.28	-1.27111E-001	-2.31611E-006	0.00000E+000	-1.27000E-001	6.73813E-005	10	...........
	12769	255.4	-1.21113E-001	-2.40619E-006	0.00000E+000	-1.21000E-001	7.33028E-005	10	...........
	12775	255.52	-1.15148E-001	-2.23437E-006	0.00000E+000	-1.15000E-001	6.54631E-005	10	...........
	12781	255.64	-1.09186E-001	-2.26940E-006	0.00000E+000	-1.09000E-001	7.03838E-005	10	...........
	12787	255.76	-1.03103E-001	-2.23437E-006	0.00000E+000	-1.03000E-001	6.78817E-005	10	...........
	12793	255.88	-9.71401E-002	-2.20101E-006	0.00000E+000	-9.70000E-002	7.52211E-005	10	...........
	12799	256	-9.11961E-002	-2.35781E-006	0.00000E+000	-9.10000E-002	7.43871E-005	10	...........
	12805	256.12	-8.52546E-002	-2.25272E-006	0.00000E+000	-8.50000E-002	7.63887E-005	10	...........
	12811	256.24	-7.91173E-002	-2.14930E-006	0.00000E+000	-7.90000E-002	7.17182E-005	10	...........
	12817	256.36	-7.31510E-002	-2.11260E-006	0.00000E+000	-7.30000E-002	7.18016E-005	10	...........
	12823	256.48	-6.71872E-002	-2.06756E-006	0.00000E+000	-6.70000E-002	6.97166E-005	10	...........
	12829	256.6	-6.12691E-002	-1.83069E-006	0.00000E+000	-6.10000E-002	7.45539E-005	10	...........
	12835	256.72	-5.51577E-002	-1.73894E-006	0.00000E+000	-5.50000E-002	6.68809E-005	10	...........
	12841	256.84	-4.91492E-002	-1.97414E-006	0.00000E+000	-4.90000E-002	6.63805E-005	10	...........
	12847	256.96	-4.31910E-002	-1.95413E-006	0.00000E+000	-4.30000E-002	6.90494E-005	10	...........
	12853	257.08	-3.73252E-002	-1.95913E-006	0.00000E+000	-3.70000E-002	6.90494E-005	10	...........
	12859	257.2	-3.11753E-002	-2.07256E-006	0.00000E+000	-3.10000E-002	6.22938E-005	10	...........
	12865	257.32	-2.51875E-002	-1.98916E-006	0.00000E+000	-2.50000E-002	7.09676E-005	10	...........
	12871	257.44	-1.92102E-002	-2.36615E-006	0.00000E+000	-1.90000E-002	7.09676E-005	10	...........
	12877	257.56	-1.32496E-002	-2.51795E-006	0.00000E+000	-1.30000E-002	7.17182E-005	10	...........
	12883	257.68	-7.19274E-003	-1.95746E-006	0.00000E+000	-6.99998E-003	6.37117E-005	10	...........
	12889	257.8	-1.18816E-003	-2.64640E-006	0.00000E+000	-9.99987E-004	6.73813E-005	10	...........
	12895	257.92	4.68156E-003	-2.59802E-006	0.00000E+000	5.00001E-003	6.31278E-005	10	...........
	12901	258.04	1.06720E-002	-2.73314E-006	0.00000E+000	1.10000E-002	7.20518E-005	10	...........
	12907	258.16	1.67757E-002	-2.46290E-006	0.00000E+000	1.70000E-002	6.67975E-005	10	...........
	12913	258.28	2.27833E-002	-2.35281E-006	0.00000E+000	2.30000E-002	6.80485E-005	10	...........
	12919	258.4	2.87115E-002	-2.05255E-006	0.00000E+000	2.90000E-002	6.72145E-005	10	...........
	12925	258.52	3.46520E-002	-2.29109E-006	0.00000E+000	3.50000E-002	7.00502E-005	10	...........
	12931	258.64	4.07537E-002	-2.31110E-006	0.00000E+000	4.10000E-002	5.82906E-005	10	...........
	12937	258.76	4.67767E-002	-1.86405E-006	0.00000E+000	4.70000E-002	6.32947E-005	10	...........
	12943	258.88	5.27096E-002	-2.19434E-006	0.00000E+000	5.30000E-002	6.79651E-005	10	...........
	12949	259	5.86244E-002	-2.37783E-006	0.00000E+000	5.90000E-002	6.90494E-005	10	...........
	12955	259.12	6.46294E-002	-2.56466E-006	0.00000E+000	6.50000E-002	5.93748E-005	10	...........
	12961	259.24	7.07753E-002	-1.95746E-006	0.00000E+000	7.10000E-002	7.19684E-005	10	...........
	12967	259.36	7.66976E-002	-1.90909E-006	0.00000E+000	7.70000E-002	6.21270E-005	10	...........
	12973	259.48	8.26086E-002	-1.56045E-006	0.00000E+000	8.30000E-002	6.76315E-005	10	...........
	12979	259.6	8.86657E-002	-2.02919E-006	0.00000E+000	8.90000E-002	6.86324E-005	10	...........
	12985	259.72	9.47282E-002	-2.75983E-006	0.00000E+000	9.50000E-002	6.44623E-005	10	...........
	12991	259.84	1.00676E-001	-2.09758E-006	0.00000E+000	1.01000E-001	6.75481E-005	10	...........
	12997	259.96	1.06586E-001	-2.30443E-006	0.00000E+000	1.07000E-001	7.49709E-005	10	...........
	13000	260.02	1.09648E-001	-2.03086E-006	0.00000E+000	1.10000E-001	7.02170E-005	10	...........